 vasp.5.4.4.18Apr17-6-g9f103f2a35 (build Feb 01 2019 03:23:26) complex          
  
 executed on             LinuxIFC date 2020.01.04  03:49:42
 running on   48 total cores
 distrk:  each k-point on   48 cores,    1 groups
 distr:  one band on NCORES_PER_BAND=   8 cores,    6 groups


--------------------------------------------------------------------------------------------------------


 INCAR:
 POTCAR:    PAW_PBE C 08Apr2002                   
 POTCAR:    PAW_PBE Ge 05Jan2001                  
 POTCAR:    PAW_PBE H 15Jun2001                   
 POTCAR:    PAW_PBE C 08Apr2002                   
   VRHFIN =C: s2p2                                                              
   LEXCH  = PE                                                                  
   EATOM  =   147.1560 eV,   10.8157 Ry                                         
                                                                                
   TITEL  = PAW_PBE C 08Apr2002                                                 
   LULTRA =        F    use ultrasoft PP ?                                      
   IUNSCR =        1    unscreen: 0-lin 1-nonlin 2-no                           
   RPACOR =    1.200    partial core radius                                     
   POMASS =   12.011; ZVAL   =    4.000    mass and valenz                      
   RCORE  =    1.500    outmost cutoff radius                                   
   RWIGS  =    1.630; RWIGS  =    0.863    wigner-seitz radius (au A)           
   ENMAX  =  400.000; ENMIN  =  300.000 eV                                      
   ICORE  =        2    local potential                                         
   LCOR   =        T    correct aug charges                                     
   LPAW   =        T    paw PP                                                  
   EAUG   =  644.873                                                            
   DEXC   =    0.000                                                            
   RMAX   =    1.529    core radius for proj-oper                               
   RAUG   =    1.300    factor for augmentation sphere                          
   RDEP   =    1.501    radius for radial grids                                 
   RDEPT  =    1.300    core radius for aug-charge                              
                                                                                
   Atomic configuration                                                         
    4 entries                                                                   
     n  l   j            E        occ.                                          
     1  0  0.50      -273.3789   2.0000                                         
     2  0  0.50       -13.7508   2.0000                                         
     2  1  0.50        -5.2854   2.0000                                         
     3  2  1.50        -5.4423   0.0000                                         
   Description                                                                  
     l       E           TYP  RCUT    TYP  RCUT                                 
     0    -13.7508458     23  1.200                                             
     0     -8.2022199     23  1.200                                             
     1     -5.2854383     23  1.500                                             
     1     34.0145650     23  1.500                                             
     2     -5.4423304      7  1.500                                             
  local pseudopotential read in
  partial core-charges read in
  partial kinetic energy density read in
  atomic valenz-charges read in
  non local Contribution for L=           0  read in
    real space projection operators read in
  non local Contribution for L=           0  read in
    real space projection operators read in
  non local Contribution for L=           1  read in
    real space projection operators read in
  non local Contribution for L=           1  read in
    real space projection operators read in
    PAW grid and wavefunctions read in
 
   number of l-projection  operators is LMAX  =           4
   number of lm-projection operators is LMMAX =           8
 
 POTCAR:    PAW_PBE Ge 05Jan2001                  
   VRHFIN =Ge: s2p2                                                             
   LEXCH  = PE                                                                  
   EATOM  =   104.9960 eV,    7.7170 Ry                                         
                                                                                
   TITEL  = PAW_PBE Ge 05Jan2001                                                
   LULTRA =        F    use ultrasoft PP ?                                      
   IUNSCR =        1    unscreen: 0-lin 1-nonlin 2-no                           
   RPACOR =    2.170    partial core radius                                     
   POMASS =   72.610; ZVAL   =    4.000    mass and valenz                      
   RCORE  =    2.300    outmost cutoff radius                                   
   RWIGS  =    2.300; RWIGS  =    1.217    wigner-seitz radius (au A)           
   ENMAX  =  173.807; ENMIN  =  130.355 eV                                      
   ICORE  =        3    local potential                                         
   LCOR   =        T    correct aug charges                                     
   LPAW   =        T    paw PP                                                  
   EAUG   =  385.843                                                            
   DEXC   =    0.000                                                            
   RMAX   =    2.342    core radius for proj-oper                               
   RAUG   =    1.300    factor for augmentation sphere                          
   RDEP   =    2.318    radius for radial grids                                 
   RDEPT  =    2.103    core radius for aug-charge                              
                                                                                
   Atomic configuration                                                         
   10 entries                                                                   
     n  l   j            E        occ.                                          
     1  0  0.50    -10959.8463   2.0000                                         
     2  0  0.50     -1371.6056   2.0000                                         
     2  1  1.50     -1198.4791   6.0000                                         
     3  0  0.50      -168.4733   2.0000                                         
     3  1  1.50      -115.6019   6.0000                                         
     3  2  2.50       -29.3106  10.0000                                         
     4  0  0.50       -11.7309   2.0000                                         
     4  1  0.50        -3.8952   2.0000                                         
     4  2  1.50        -4.0817   0.0000                                         
     4  3  2.50        -4.0817   0.0000                                         
   Description                                                                  
     l       E           TYP  RCUT    TYP  RCUT                                 
     0    -11.7309493     23  2.300                                             
     0     -7.4578696     23  2.300                                             
     1     -3.8952261     23  2.300                                             
     1      6.1178114     23  2.300                                             
     2     -4.0817478     23  2.300                                             
     3     -1.3605826      7  2.300                                             
  local pseudopotential read in
  partial core-charges read in
  partial kinetic energy density read in
  atomic valenz-charges read in
  non local Contribution for L=           0  read in
    real space projection operators read in
  non local Contribution for L=           0  read in
    real space projection operators read in
  non local Contribution for L=           1  read in
    real space projection operators read in
  non local Contribution for L=           1  read in
    real space projection operators read in
  non local Contribution for L=           2  read in
    real space projection operators read in
    PAW grid and wavefunctions read in
 
   number of l-projection  operators is LMAX  =           5
   number of lm-projection operators is LMMAX =          13
 
 POTCAR:    PAW_PBE H 15Jun2001                   
   VRHFIN =H: ultrasoft test                                                    
   LEXCH  = PE                                                                  
   EATOM  =    12.4884 eV,    0.9179 Ry                                         
                                                                                
   TITEL  = PAW_PBE H 15Jun2001                                                 
   LULTRA =        F    use ultrasoft PP ?                                      
   IUNSCR =        0    unscreen: 0-lin 1-nonlin 2-no                           
   RPACOR =    0.000    partial core radius                                     
   POMASS =    1.000; ZVAL   =    1.000    mass and valenz                      
   RCORE  =    1.100    outmost cutoff radius                                   
   RWIGS  =    0.700; RWIGS  =    0.370    wigner-seitz radius (au A)           
   ENMAX  =  250.000; ENMIN  =  200.000 eV                                      
   RCLOC  =    0.701    cutoff for local pot                                    
   LCOR   =        T    correct aug charges                                     
   LPAW   =        T    paw PP                                                  
   EAUG   =  400.000                                                            
   RMAX   =    1.123    core radius for proj-oper                               
   RAUG   =    1.200    factor for augmentation sphere                          
   RDEP   =    1.112    radius for radial grids                                 
   RDEPT  =    0.926    core radius for aug-charge                              
                                                                                
   Atomic configuration                                                         
    2 entries                                                                   
     n  l   j            E        occ.                                          
     1  0  0.50        -6.4927   1.0000                                         
     2  1  0.50        -3.4015   0.0000                                         
   Description                                                                  
     l       E           TYP  RCUT    TYP  RCUT                                 
     0     -6.4927494     23  1.100                                             
     0      6.8029130     23  1.100                                             
     1     -4.0817478     23  1.100                                             
  local pseudopotential read in
  atomic valenz-charges read in
  non local Contribution for L=           0  read in
    real space projection operators read in
  non local Contribution for L=           0  read in
    real space projection operators read in
  non local Contribution for L=           1  read in
    real space projection operators read in
    PAW grid and wavefunctions read in
 
   number of l-projection  operators is LMAX  =           3
   number of lm-projection operators is LMMAX =           5
 
 Optimization of the real space projectors (new method)

 maximal supplied QI-value         = 25.13
 optimisation between [QCUT,QGAM] = [ 16.09, 40.46] = [ 72.45,458.52] Ry 
 Optimized for a Real-space Cutoff    0.83 Angstroem

   l    n(q)    QCUT    max X(q) W(low)/X(q) W(high)/X(q)  e(spline) 
   0     10    16.085   115.676    0.29E-03    0.26E-03    0.99E-06
   0     10    16.085    87.132    0.29E-03    0.25E-03    0.98E-06
   1     10    16.085     4.429    0.44E-04    0.14E-03    0.58E-06
   1     10    16.085     2.733    0.34E-04    0.11E-03    0.45E-06
 Optimization of the real space projectors (new method)

 maximal supplied QI-value         = 16.25
 optimisation between [QCUT,QGAM] = [ 16.09, 40.47] = [ 72.49,458.56] Ry 
 Optimized for a Real-space Cutoff    1.19 Angstroem

   l    n(q)    QCUT    max X(q) W(low)/X(q) W(high)/X(q)  e(spline) 
   0     15    16.089    65.336    0.21E-03    0.96E-04    0.12E-03
   0     15    16.089    52.220    0.21E-03    0.95E-04    0.12E-03
   1     14    16.089    36.409    0.27E-03    0.58E-04    0.19E-03
   1     14    16.089    21.334    0.26E-03    0.56E-04    0.18E-03
   2     14    16.089     4.673    0.11E-03    0.13E-03    0.68E-04
 Optimization of the real space projectors (new method)

 maximal supplied QI-value         = 34.20
 optimisation between [QCUT,QGAM] = [ 16.08, 40.36] = [ 72.37,456.16] Ry 
 Optimized for a Real-space Cutoff    0.66 Angstroem

   l    n(q)    QCUT    max X(q) W(low)/X(q) W(high)/X(q)  e(spline) 
   0      8    16.076    19.460    0.31E-03    0.45E-03    0.87E-07
   0      8    16.076    12.209    0.29E-03    0.42E-03    0.81E-07
   1      7    16.076     4.655    0.30E-03    0.90E-04    0.71E-07
  PAW_PBE C 08Apr2002                   :
 energy of atom  1       EATOM= -147.1560
 kinetic energy error for atom=    0.0010 (will be added to EATOM!!)
  PAW_PBE Ge 05Jan2001                  :
 energy of atom  2       EATOM= -104.9960
 kinetic energy error for atom=    0.0000 (will be added to EATOM!!)
  PAW_PBE H 15Jun2001                   :
 energy of atom  3       EATOM=  -12.4884
 kinetic energy error for atom=    0.0001 (will be added to EATOM!!)
 
 
 POSCAR: Ge2 H54 C44  [TRI,TRI1b,aP100] (STD_PRIM
  positions in direct lattice
  velocities in cartesian coordinates
 exchange correlation table for  LEXCH =        8
   RHO(1)=    0.500       N(1)  =     2000
   RHO(2)=  100.500       N(2)  =     4000
 


--------------------------------------------------------------------------------------------------------


 ion  position               nearest neighbor table
   1  0.679  0.329  0.275-   5 1.23  45 1.93
   2  0.018  0.318  0.184-  47 1.10   7 1.53   6 1.53  45 2.01
   3  0.675  0.348  0.091-  48 1.10   9 1.53   8 1.53  45 2.01
   4  0.720  0.971  0.142-  49 1.10  11 1.53  10 1.53  45 2.01
   5  0.624  0.384  0.342-   1 1.23  12 1.41
   6  0.091  0.249  0.252-  51 1.10  52 1.10  50 1.10   2 1.53
   7  0.054  0.521  0.199-  55 1.10  54 1.10  53 1.10   2 1.53
   8  0.749  0.297  0.007-  58 1.10  57 1.10  56 1.10   3 1.53
   9  0.487  0.305  0.089-  60 1.10  61 1.10  59 1.10   3 1.53
  10  0.843  0.887  0.081-  64 1.10  63 1.10  62 1.10   4 1.53
  11  0.707  0.889  0.215-  66 1.10  67 1.10  65 1.10   4 1.53
  12  0.562  0.442  0.420-   5 1.41  14 1.43  13 1.43
  13  0.457  0.320  0.455-  15 1.41  12 1.43  16 1.45
  14  0.605  0.622  0.464-  18 1.41  12 1.43  17 1.45
  15  0.413  0.142  0.413-  68 1.09  19 1.39  13 1.41
  16  0.395  0.378  0.536-  21 1.41  20 1.43  13 1.45
  17  0.543  0.680  0.545-  22 1.41  20 1.43  14 1.45
  18  0.707  0.747  0.430-  69 1.09  23 1.39  14 1.41
  19  0.314  0.019  0.447-  15 1.39  24 1.43  25 1.45
  20  0.438  0.558  0.580-  26 1.41  16 1.43  17 1.43
  21  0.293  0.253  0.570-  70 1.09  25 1.39  16 1.41
  22  0.587  0.858  0.587-  71 1.09  27 1.39  17 1.41
  23  0.748  0.924  0.472-  18 1.39  28 1.43  27 1.45
  24  0.271  0.837  0.405-  72 1.09  29 1.37  19 1.43
  25  0.252  0.076  0.528-  21 1.39  30 1.43  19 1.45
  26  0.376  0.616  0.658-  31 1.23  20 1.41
  27  0.686  0.981  0.553-  22 1.39  32 1.43  23 1.45
  28  0.850  0.051  0.439-  73 1.09  33 1.37  23 1.43
  29  0.174  0.719  0.439-  74 1.09  24 1.37  34 1.43
  30  0.150  0.949  0.561-  75 1.09  34 1.37  25 1.43
  31  0.321  0.671  0.725-  26 1.23  46 1.93
  32  0.729  0.163  0.595-  76 1.09  35 1.37  27 1.43
  33  0.888  0.224  0.481-  77 1.09  28 1.37  35 1.43
  34  0.112  0.776  0.519-  78 1.09  30 1.37  29 1.43
  35  0.826  0.281  0.561-  79 1.09  32 1.37  33 1.43
  36  0.982  0.682  0.816-  80 1.10  40 1.53  39 1.53  46 2.01
  37  0.325  0.652  0.909-  81 1.10  42 1.53  41 1.53  46 2.01
  38  0.280  0.029  0.858-  82 1.10  44 1.53  43 1.53  46 2.01
  39  0.909  0.751  0.748-  84 1.10  85 1.10  83 1.10  36 1.53
  40  0.946  0.479  0.801-  88 1.10  87 1.10  86 1.10  36 1.53
  41  0.251  0.703  0.993-  91 1.10  90 1.10  89 1.10  37 1.53
  42  0.513  0.695  0.911-  93 1.10  94 1.10  92 1.10  37 1.53
  43  0.157  0.113  0.919-  97 1.10  96 1.10  95 1.10  38 1.53
  44  0.293  0.111  0.785-  99 1.10 100 1.10  98 1.10  38 1.53
  45  0.776  0.238  0.171-   1 1.93   2 2.01   3 2.01   4 2.01
  46  0.224  0.762  0.829-  31 1.93  36 2.01  37 2.01  38 2.01
  47  0.072  0.257  0.126-   2 1.10
  48  0.707  0.493  0.115-   3 1.10
  49  0.598  0.949  0.112-   4 1.10
  50  0.224  0.296  0.261-   6 1.10
  51  0.077  0.102  0.239-   6 1.10
  52  0.031  0.295  0.309-   6 1.10
  53  0.187  0.564  0.205-   7 1.10
  54  0.997  0.586  0.255-   7 1.10
  55  0.008  0.571  0.149-   7 1.10
  56  0.699  0.366  0.965-   8 1.10
  57  0.721  0.153  0.981-   8 1.10
  58  0.884  0.330  0.009-   8 1.10
  59  0.432  0.372  0.048-   9 1.10
  60  0.434  0.346  0.149-   9 1.10
  61  0.449  0.161  0.067-   9 1.10
  62  0.808  0.742  0.061-  10 1.10
  63  0.968  0.909  0.107-  10 1.10
  64  0.852  0.942  0.026-  10 1.10
  65  0.659  0.746  0.198-  11 1.10
  66  0.626  0.954  0.261-  11 1.10
  67  0.828  0.899  0.244-  11 1.10
  68  0.461  0.099  0.353-  15 1.09
  69  0.753  0.703  0.370-  18 1.09
  70  0.247  0.297  0.630-  21 1.09
  71  0.539  0.901  0.647-  22 1.09
  72  0.320  0.794  0.344-  24 1.09
  73  0.899  0.008  0.378-  28 1.09
  74  0.144  0.581  0.407-  29 1.09
  75  0.101  0.992  0.622-  30 1.09
  76  0.680  0.206  0.656-  32 1.09
  77  0.966  0.320  0.455-  33 1.09
  78  0.034  0.680  0.545-  34 1.09
  79  0.856  0.419  0.593-  35 1.09
  80  0.928  0.743  0.874-  36 1.10
  81  0.293  0.507  0.885-  37 1.10
  82  0.402  0.051  0.888-  38 1.10
  83  0.776  0.704  0.739-  39 1.10
  84  0.923  0.898  0.761-  39 1.10
  85  0.969  0.705  0.691-  39 1.10
  86  0.813  0.436  0.795-  40 1.10
  87  0.003  0.414  0.745-  40 1.10
  88  0.992  0.429  0.851-  40 1.10
  89  0.301  0.634  0.035-  41 1.10
  90  0.279  0.847  0.019-  41 1.10
  91  0.116  0.670  0.991-  41 1.10
  92  0.568  0.628  0.952-  42 1.10
  93  0.566  0.654  0.851-  42 1.10
  94  0.551  0.839  0.933-  42 1.10
  95  0.192  0.258  0.939-  43 1.10
  96  0.032  0.091  0.893-  43 1.10
  97  0.148  0.058  0.974-  43 1.10
  98  0.341  0.254  0.802-  44 1.10
  99  0.374  0.046  0.739-  44 1.10
 100  0.172  0.101  0.756-  44 1.10
 
  LATTYP: Found a triclinic cell.
 ALAT       =     7.7680881686
 B/A-ratio  =     2.1382162069
 C/A-ratio  =     2.4722667049
 COS(alpha) =     0.0089868194
 COS(beta)  =     0.2553267330
 COS(gamma) =     0.8720625414
  
  Lattice vectors:
  
 A1 = (   1.0776788829,  -7.6923616980,   0.0968169773)
 A2 = (  -6.0406139561, -15.4715981442,   0.1667872457)
 A3 = (   9.0405111652,  -3.8927685141, -16.4905823575)


Analysis of symmetry for initial positions (statically):
=====================================================================
 Subroutine PRICEL returns:
 Original cell was already a primitive cell.
 

 Routine SETGRP: Setting up the symmetry group for a 
 triclinic supercell.


 Subroutine GETGRP returns: Found  2 space group operations
 (whereof  2 operations were pure point group operations)
 out of a pool of  2 trial point group operations.


The static configuration has the point symmetry S_2 .


Analysis of symmetry for dynamics (positions and initial velocities):
=====================================================================
 Subroutine PRICEL returns:
 Original cell was already a primitive cell.
 

 Routine SETGRP: Setting up the symmetry group for a 
 triclinic supercell.


 Subroutine GETGRP returns: Found  2 space group operations
 (whereof  2 operations were pure point group operations)
 out of a pool of  2 trial point group operations.


The dynamic configuration has the point symmetry S_2 .


 Subroutine INISYM returns: Found  2 space group operations
 (whereof  2 operations are pure point group operations),
 and found     1 'primitive' translations

 
 
 KPOINTS: EMC 1.51py                              
  k-points in reciprocal lattice
Space group operators:
 irot       det(A)        alpha          n_x          n_y          n_z        tau_x        tau_y        tau_z
    1     1.000000     0.000000     1.000000     0.000000     0.000000     0.000000     0.000000     0.000000
    2    -1.000000     0.000000     1.000000     0.000000     0.000000     0.000000     0.000000     0.000000


--------------------------------------------------------------------------------------------------------




 Dimension of arrays:
   k-points           NKPTS =     19   k-points in BZ     NKDIM =     19   number of bands    NBANDS=    174
   number of dos      NEDOS =   2000   number of ions     NIONS =    100
   non local maximal  LDIM  =      5   non local SUM 2l+1 LMDIM =     13
   total plane-waves  NPLWV = ******
   max r-space proj   IRMAX =   8776   max aug-charges    IRDMAX=  10298
   dimension x,y,z NGX =    90 NGY =   80 NGZ =  180
   dimension x,y,z NGXF=    90 NGYF=   90 NGZF=  192
   support grid    NGXF=    90 NGYF=   90 NGZF=  192
   ions per type =              44   2  54
   NGX,Y,Z   is equivalent  to a cutoff of  18.25, 17.12, 17.58 a.u.
   NGXF,Y,Z  is equivalent  to a cutoff of  18.25, 19.26, 18.75 a.u.

 SYSTEM =  unknown system                          
 POSCAR =  Ge2 H54 C44  [TRI,TRI1b,aP100] (STD_PRIM

 Startparameter for this run:
   NWRITE =      2    write-flag & timer
   PREC   = high      normal or accurate (medium, high low for compatibility)
   ISTART =      0    job   : 0-new  1-cont  2-samecut
   ICHARG =     11    charge: 1-file 2-atom 10-const
   ISPIN  =      1    spin polarized calculation?
   LNONCOLLINEAR =      F non collinear calculations
   LSORBIT =      F    spin-orbit coupling
   INIWAV =      1    electr: 0-lowe 1-rand  2-diag
   LASPH  =      F    aspherical Exc in radial PAW
   METAGGA=      F    non-selfconsistent MetaGGA calc.

 Electronic Relaxation 1
   ENCUT  = 1000.0 eV  73.50 Ry    8.57 a.u.  21.13 20.03 43.90*2*pi/ulx,y,z
   ENINI  = 1000.0     initial cutoff
   ENAUG  =  644.9 eV  augmentation charge cutoff
   NELM   =    200;   NELMIN=  2; NELMDL= -5     # of ELM steps 
   EDIFF  = 0.1E-05   stopping-criterion for ELM
   LREAL  =      T    real-space projection
   NLSPLINE    = F    spline interpolate recip. space projectors
   LCOMPAT=      F    compatible to vasp.4.4
   GGA_COMPAT  = T    GGA compatible to vasp.4.4-vasp.4.6
   LMAXPAW     = -100 max onsite density
   LMAXMIX     =    2 max onsite mixed and CHGCAR
   VOSKOWN=      0    Vosko Wilk Nusair interpolation
   ROPT   =   -0.00040  -0.00040  -0.00040
 Ionic relaxation
   EDIFFG = 0.1E-04   stopping-criterion for IOM
   NSW    =      0    number of steps for IOM
   NBLOCK =      1;   KBLOCK =      1    inner block; outer block 
   IBRION =     -1    ionic relax: 0-MD 1-quasi-New 2-CG
   NFREE  =      0    steps in history (QN), initial steepest desc. (CG)
   ISIF   =      2    stress and relaxation
   IWAVPR =     10    prediction:  0-non 1-charg 2-wave 3-comb
   ISYM   =      2    0-nonsym 1-usesym 2-fastsym
   LCORR  =      T    Harris-Foulkes like correction to forces

   POTIM  = 0.5000    time-step for ionic-motion
   TEIN   =    0.0    initial temperature
   TEBEG  =    0.0;   TEEND  =   0.0 temperature during run
   SMASS  =  -3.00    Nose mass-parameter (am)
   estimated Nose-frequenzy (Omega)   =  0.10E-29 period in steps =****** mass=  -0.154E-26a.u.
   SCALEE = 1.0000    scale energy and forces
   NPACO  =    256;   APACO  = 16.0  distance and # of slots for P.C.
   PSTRESS=    0.0 pullay stress

  Mass of Ions in am
   POMASS =  12.01 72.61  1.00
  Ionic Valenz
   ZVAL   =   4.00  4.00  1.00
  Atomic Wigner-Seitz radii
   RWIGS  =  -1.00 -1.00 -1.00
  virtual crystal weights 
   VCA    =   1.00  1.00  1.00
   NELECT =     238.0000    total number of electrons
   NUPDOWN=      -1.0000    fix difference up-down

 DOS related values:
   EMIN   =  10.00;   EMAX   =-10.00  energy-range for DOS
   EFERMI =   0.00
   ISMEAR =     0;   SIGMA  =   0.05  broadening in eV -4-tet -1-fermi 0-gaus

 Electronic relaxation 2 (details)
   IALGO  =     38    algorithm
   LDIAG  =      T    sub-space diagonalisation (order eigenvalues)
   LSUBROT=      F    optimize rotation matrix (better conditioning)
   TURBO    =      0    0=normal 1=particle mesh
   IRESTART =      0    0=no restart 2=restart with 2 vectors
   NREBOOT  =      0    no. of reboots
   NMIN     =      0    reboot dimension
   EREF     =   0.00    reference energy to select bands
   IMIX   =      4    mixing-type and parameters
     AMIX     =   0.40;   BMIX     =  1.00
     AMIX_MAG =   1.60;   BMIX_MAG =  1.00
     AMIN     =   0.10
     WC   =   100.;   INIMIX=   1;  MIXPRE=   1;  MAXMIX= -45

 Intra band minimization:
   WEIMIN = 0.0000     energy-eigenvalue tresh-hold
   EBREAK =  0.14E-08  absolut break condition
   DEPER  =   0.30     relativ break condition  

   TIME   =   0.40     timestep for ELM

  volume/ion in A,a.u.               =      10.46        70.60
  Fermi-wavevector in a.u.,A,eV,Ry     =   0.999397  1.888586 13.589416  0.998794
  Thomas-Fermi vector in A             =   2.131684
 
 Write flags
   LWAVE        =      T    write WAVECAR
   LDOWNSAMPLE  =      F    k-point downsampling of WAVECAR
   LCHARG       =      T    write CHGCAR
   LVTOT        =      F    write LOCPOT, total local potential
   LVHAR        =      F    write LOCPOT, Hartree potential only
   LELF         =      F    write electronic localiz. function (ELF)
   LORBIT       =      0    0 simple, 1 ext, 2 COOP (PROOUT), +10 PAW based schemes


 Dipole corrections
   LMONO  =      F    monopole corrections only (constant potential shift)
   LDIPOL =      F    correct potential (dipole corrections)
   IDIPOL =      0    1-x, 2-y, 3-z, 4-all directions 
   EPSILON=  1.0000000 bulk dielectric constant

 Exchange correlation treatment:
   GGA     =    --    GGA type
   LEXCH   =     8    internal setting for exchange type
   VOSKOWN=      0    Vosko Wilk Nusair interpolation
   LHFCALC =     F    Hartree Fock is set to
   LHFONE  =     F    Hartree Fock one center treatment
   AEXX    =    0.0000 exact exchange contribution

 Linear response parameters
   LEPSILON=     F    determine dielectric tensor
   LRPA    =     F    only Hartree local field effects (RPA)
   LNABLA  =     F    use nabla operator in PAW spheres
   LVEL    =     F    velocity operator in full k-point grid
   LINTERFAST=   F  fast interpolation
   KINTER  =     0    interpolate to denser k-point grid
   CSHIFT  =0.1000    complex shift for real part using Kramers Kronig
   OMEGAMAX=  -1.0    maximum frequency
   DEG_THRESHOLD= 0.2000000E-02 threshold for treating states as degnerate
   RTIME   =   -0.100 relaxation time in fs
  (WPLASMAI=    0.000 imaginary part of plasma frequency in eV, 0.658/RTIME)
   DFIELD  = 0.0000000 0.0000000 0.0000000 field for delta impulse in time
 
 Orbital magnetization related:
   ORBITALMAG=     F  switch on orbital magnetization
   LCHIMAG   =     F  perturbation theory with respect to B field
   DQ        =  0.001000  dq finite difference perturbation B field
   LLRAUG    =     F  two centre corrections for induced B field



--------------------------------------------------------------------------------------------------------


 Static calculation
 charge density and potential remain constant during run
 non-spin polarized calculation
 Variant of blocked Davidson
 Davidson routine will perform the subspace rotation
 perform sub-space diagonalisation
    after iterative eigenvector-optimisation
 no mixing
 using additional bands           55
 real space projection scheme for non local part
 use partial core corrections
 calculate Harris-corrections to forces 
   (improved forces if not selfconsistent)
 use gradient corrections 
 WARNING: stress and forces are not correct
  (second derivative of E(xc) not defined)
 use of overlap-Matrix (Vanderbilt PP)
 Gauss-broadening in eV      SIGMA  =   0.05


--------------------------------------------------------------------------------------------------------


  energy-cutoff  :     1000.00
  volume of cell :     1046.13
      direct lattice vectors                 reciprocal lattice vectors
     8.195971722  0.086874748  0.026846709     0.121823058  0.017093639  0.002110364
    -1.077678883  7.692361698 -0.096816977    -0.001474985  0.130158787  0.029106756
     0.233139440 -3.712718436 16.614246044    -0.000205447  0.000730859  0.060355515

  length of vectors
     8.196476098  7.768088169 17.025621980     0.123034563  0.133381740  0.060360289


 
 k-points in units of 2pi/SCALE and weight: EMC 1.51py                              
   0.00000000  0.00000000  0.00000000       0.053
  -0.01052657  0.00000000  0.00000000       0.053
   0.01052657 -0.00000000 -0.00000000       0.053
  -0.00000000 -0.01052657 -0.00000000       0.053
   0.00000000  0.01052657  0.00000000       0.053
  -0.00000000  0.00000000 -0.01052657       0.053
   0.00000000 -0.00000000  0.01052657       0.053
  -0.01052657 -0.01052657 -0.00000000       0.053
   0.01052657  0.01052657  0.00000000       0.053
   0.01052657 -0.01052657  0.00000000       0.053
  -0.01052657  0.01052657 -0.00000000       0.053
  -0.01052657 -0.00000000 -0.01052657       0.053
   0.01052657  0.00000000  0.01052657       0.053
   0.01052657  0.00000000 -0.01052657       0.053
  -0.01052657 -0.00000000  0.01052657       0.053
   0.00000000 -0.01052657 -0.01052657       0.053
  -0.00000000  0.01052657  0.01052657       0.053
   0.00000000  0.01052657 -0.01052657       0.053
  -0.00000000 -0.01052657  0.01052657       0.053
 
 k-points in reciprocal lattice and weights: EMC 1.51py                              
   0.00000000  0.00000000  0.00000000       0.053
  -0.08627550  0.01134427 -0.00245416       0.053
   0.08627550 -0.01134427  0.00245416       0.053
  -0.00091449 -0.08097421  0.03908220       0.053
   0.00091449  0.08097421 -0.03908220       0.053
  -0.00028260  0.00101915 -0.17489109       0.053
   0.00028260 -0.00101915  0.17489109       0.053
  -0.08719000 -0.06962995  0.03662805       0.053
   0.08719000  0.06962995 -0.03662805       0.053
   0.08536101 -0.09231848  0.04153636       0.053
  -0.08536101  0.09231848 -0.04153636       0.053
  -0.08655811  0.01236342 -0.17734525       0.053
   0.08655811 -0.01236342  0.17734525       0.053
   0.08599290 -0.01032512 -0.17243693       0.053
  -0.08599290  0.01032512  0.17243693       0.053
  -0.00119710 -0.07995506 -0.13580888       0.053
   0.00119710  0.07995506  0.13580888       0.053
   0.00063189  0.08199336 -0.21397329       0.053
  -0.00063189 -0.08199336  0.21397329       0.053
 
 position of ions in fractional coordinates (direct lattice) 
   0.67899767  0.32887647  0.27455248
   0.01845032  0.31753242  0.18437121
   0.67475394  0.34842508  0.09116212
   0.72018715  0.97126636  0.14151502
   0.62441504  0.38357854  0.34208670
   0.09128918  0.24859460  0.25172012
   0.05380836  0.52064705  0.19893472
   0.74938734  0.29701282  0.00748618
   0.48746572  0.30475563  0.08876618
   0.84337863  0.88749760  0.08063559
   0.70685976  0.88875376  0.21501054
   0.56191804  0.44244075  0.42019052
   0.45714649  0.31990757  0.45526223
   0.60524072  0.62235920  0.46392574
   0.41338848  0.14153871  0.41336956
   0.39475928  0.37764080  0.53607426
   0.54285351  0.68009243  0.54473777
   0.70657991  0.74712476  0.43049809
   0.31368713  0.01880457  0.44695845
   0.43808196  0.55755925  0.57980948
   0.29342009  0.25287524  0.56950191
   0.58661152  0.85846129  0.58663044
   0.74810108  0.92390933  0.47227512
   0.27120759  0.83721671  0.40461896
   0.25189892  0.07609067  0.52772488
   0.37558496  0.61642146  0.65791330
   0.68631287  0.98119543  0.55304155
   0.85022359  0.05133735  0.43865987
   0.17367626  0.71922841  0.43943123
   0.14977641  0.94866265  0.56134013
   0.32100233  0.67112353  0.72544752
   0.72879241  0.16278329  0.59538104
   0.88788745  0.22413255  0.48130730
   0.11211255  0.77586745  0.51869270
   0.82632374  0.28077159  0.56056877
   0.98154968  0.68246758  0.81562879
   0.32524606  0.65157492  0.90883788
   0.27981285  0.02873364  0.85848498
   0.90871082  0.75140540  0.74827988
   0.94619164  0.47935295  0.80106528
   0.25061266  0.70298718  0.99251382
   0.51253428  0.69524437  0.91123382
   0.15662137  0.11250240  0.91936441
   0.29314024  0.11124624  0.78498946
   0.77563219  0.23825893  0.17135061
   0.22436781  0.76174107  0.82864939
   0.07162349  0.25694210  0.12625823
   0.70696809  0.49288308  0.11531704
   0.59818162  0.94904924  0.11180538
   0.22376572  0.29647304  0.26057755
   0.07746382  0.10215798  0.23894141
   0.03087360  0.29509474  0.30944206
   0.18732340  0.56446935  0.20523286
   0.99689203  0.58637656  0.25490969
   0.00809079  0.57113631  0.14929074
   0.69932702  0.36645295  0.96539067
   0.72109540  0.15312017  0.98093871
   0.88394456  0.33031412  0.00870983
   0.43162478  0.37227303  0.04760163
   0.43414406  0.34597712  0.14870543
   0.44880836  0.16074633  0.06663699
   0.80838072  0.74219386  0.06064328
   0.96770207  0.90865649  0.10747376
   0.85161560  0.94172975  0.02632028
   0.65865192  0.74593117  0.19767248
   0.62600516  0.95438774  0.26118175
   0.82794985  0.89864971  0.24380887
   0.46093226  0.09876848  0.35282433
   0.75324240  0.70295004  0.36982489
   0.24675760  0.29704996  0.63017511
   0.53906774  0.90123152  0.64717567
   0.31971679  0.79403346  0.34423724
   0.89868342  0.00801615  0.37837620
   0.14353478  0.58073109  0.40673115
   0.10131658  0.99198385  0.62162380
   0.68028321  0.20596654  0.65576276
   0.96627384  0.31971985  0.45495236
   0.03372616  0.68028015  0.54504764
   0.85646522  0.41926891  0.59326885
   0.92837651  0.74305790  0.87374177
   0.29303191  0.50711692  0.88468296
   0.40181838  0.05095076  0.88819462
   0.77623428  0.70352696  0.73942245
   0.92253618  0.89784202  0.76105859
   0.96912640  0.70490526  0.69055794
   0.81267660  0.43553065  0.79476714
   0.00310797  0.41362344  0.74509031
   0.99190921  0.42886369  0.85070926
   0.30067298  0.63354705  0.03460933
   0.27890460  0.84687983  0.01906129
   0.11605544  0.66968588  0.99129017
   0.56837522  0.62772697  0.95239837
   0.56585594  0.65402288  0.85129457
   0.55119164  0.83925367  0.93336301
   0.19161928  0.25780614  0.93935672
   0.03229793  0.09134351  0.89252624
   0.14838440  0.05827025  0.97367972
   0.34134808  0.25406883  0.80232752
   0.37399484  0.04561226  0.73881825
   0.17205015  0.10135029  0.75619113
 
 position of ions in cartesian coordinates  (Angst):
   5.27463151  1.56948843  4.54787046
  -0.14799547  1.75965868  3.03294139
   5.17602730  2.40037158  1.49897128
   4.88891304  7.00849277  2.27646491
   4.78406745  1.73479917  5.66313919
   0.53898429  0.98564435  4.16052262
  -0.07369904  3.27109141  3.25618753
   5.82361830  2.32203880  0.11573986
   3.68752147  2.05707518  1.45836454
   5.97466931  6.60084364  1.27641656
   4.88573888  6.09975002  3.50516840
   4.22661828  1.89218164  6.95339858
   3.50814162  0.81029871  7.54513914
   4.39799184  3.11756652  7.66377021
   3.33195979 -0.41004481  6.86521841
   2.95344044  0.94895149  8.88050557
   3.84329066  3.25621930  8.99913663
   5.08631443  4.21021963  7.09903618
   2.65490924 -1.48752788  7.43247859
   3.12481400  2.17433637  9.59087719
   2.26511784 -0.14370162  9.44523960
   4.01947249  4.47656282  9.67905737
   5.24584366  5.41861126  7.77712900
   1.41489163  4.96149859  6.64866324
   2.10558862 -1.35209325  8.76714678
   2.56736483  2.33171884 10.88113659
   4.69652304  5.55404589  9.11179718
   7.01535226 -1.15985214  7.30585842
   0.75079721  3.91616870  7.23584765
   0.33608002  5.22637015  9.23841735
   2.07680077  2.49702958 11.99640531
   5.93654065 -0.89498058  9.89561254
   7.14776922  0.01428518  7.99869486
   0.20366306  4.05223283  8.54558091
   6.60063507  0.15034931  9.30842812
   7.49942775  2.30685933 13.51133439
   2.17540497  1.66614643 15.04530449
   2.46251924 -2.94197476 14.26781086
   6.81244798  3.08087366 12.38375316
   7.42513132  0.79542660 13.28808825
   1.52781398  1.74447921 16.42853592
   3.66391081  2.00944283 15.08591124
   1.37676297 -2.53432563 15.26785922
   2.46569340 -2.03323201 13.03910737
   6.14024151  1.26398011  2.84461693
   1.21119077  2.80253790 13.69965885
   0.33955879  1.51395261  2.07473175
   5.29000577  3.42471288  1.88716606
   3.90597559  6.93729502  1.78173728
   1.57522565  1.33256637  4.30660332
   0.58050446 -0.09455641  3.96202045
   0.00716495  1.12378639  5.11340513
   0.97482846  3.59640427  3.36016800
   7.59800277  3.65081747  4.20512430
  -0.51438411  3.83981544  2.42527462
   5.56181648 -0.70458121 16.02253387
   5.97375866 -2.40144853 16.30209144
   6.89084270  2.58535104  0.13645824
   3.14749154  2.72442464  0.76641056
   3.22004931  2.14699591  2.44878751
   3.52072344  1.02810461  1.10360946
   5.83975717  5.55430011  0.95738772
   6.97707525  6.67476341  1.72360172
   5.97107142  7.22038996  0.36897929
   4.64050352  5.06129035  3.22964312
   4.16308881  6.42618548  4.26374306
   5.87423922  6.07947287  3.98592371
   3.75360431 -0.51013115  5.86472234
   5.50221978  4.09972807  6.09652622
   1.84921250 -0.03321006 10.44774955
   3.59782797  4.57664916 10.67955344
   1.84493196  4.85771199  5.65094956
   7.44515945 -1.26506826  6.30978586
   0.64539045  2.96958491  6.70516016
  -0.09372717  5.33158627 10.23448992
   5.50650032 -0.79119398 10.89332621
   7.68106504  0.85423552  7.55367738
  -0.32963276  3.21228249  8.99059840
   6.70604183  1.09693310  9.83911561
   7.01187349  2.55256540 14.46954402
   2.06142650  0.64180513 14.65710972
   3.44545668 -2.87077701 14.76253850
   5.77620663  2.73395164 12.23767245
   6.77092782  4.16107442 12.58225533
   7.34426733  2.94273162 11.43087065
   6.37660382  0.47011374 13.18410778
  -0.24657049  0.41570054 12.33915148
   7.86581638  0.22670257 14.11900115
   1.78961580  4.77109922  0.52174190
   1.37767362  6.46796654  0.24218434
   0.46058958  1.48116697 16.40781753
   4.20394074  1.34209337 15.77786521
   4.13138297  1.91952210 14.09548827
   3.83070884  3.03841340 15.44066632
   1.51167511 -1.48778210 15.58688806
   0.37435703 -2.60824540 14.82067405
   1.38036086 -3.15387195 16.17529648
   2.71092876 -0.99477233 13.31463266
   3.18834347 -2.35966747 12.28053272
   1.47719306 -2.01295486 12.55835206
 


--------------------------------------------------------------------------------------------------------


 k-point  1 :   0.0000 0.0000 0.0000  plane waves:   75063
 k-point  2 :  -0.0863 0.0113-0.0025  plane waves:   75043
 k-point  3 :   0.0863-0.0113 0.0025  plane waves:   75043
 k-point  4 :  -0.0009-0.0810 0.0391  plane waves:   75064
 k-point  5 :   0.0009 0.0810-0.0391  plane waves:   75064
 k-point  6 :  -0.0003 0.0010-0.1749  plane waves:   75059
 k-point  7 :   0.0003-0.0010 0.1749  plane waves:   75059
 k-point  8 :  -0.0872-0.0696 0.0366  plane waves:   75033
 k-point  9 :   0.0872 0.0696-0.0366  plane waves:   75033
 k-point 10 :   0.0854-0.0923 0.0415  plane waves:   75110
 k-point 11 :  -0.0854 0.0923-0.0415  plane waves:   75110
 k-point 12 :  -0.0866 0.0124-0.1773  plane waves:   75044
 k-point 13 :   0.0866-0.0124 0.1773  plane waves:   75044
 k-point 14 :   0.0860-0.0103-0.1724  plane waves:   75044
 k-point 15 :  -0.0860 0.0103 0.1724  plane waves:   75044
 k-point 16 :  -0.0012-0.0800-0.1358  plane waves:   75057
 k-point 17 :   0.0012 0.0800 0.1358  plane waves:   75057
 k-point 18 :   0.0006 0.0820-0.2140  plane waves:   75060
 k-point 19 :  -0.0006-0.0820 0.2140  plane waves:   75060

 maximum and minimum number of plane-waves per node :      9414     9359

 maximum number of plane-waves:     75110
 maximum index in each direction: 
   IXMAX=   21   IYMAX=   20   IZMAX=   44
   IXMIN=  -21   IYMIN=  -20   IZMIN=  -44


 real space projection operators:
  total allocation   :      12788.08 KBytes
  max/ min on nodes  :       1675.63       1564.37


 parallel 3D FFT for wavefunctions:
    minimum data exchange during FFTs selected (reduces bandwidth)
 parallel 3D FFT for charge:
    minimum data exchange during FFTs selected (reduces bandwidth)


 total amount of memory used by VASP MPI-rank0   146327. kBytes
=======================================================================

   base      :      30000. kBytes
   nonlr-proj:      16956. kBytes
   fftplans  :       6535. kBytes
   grid      :       9156. kBytes
   one-center:        105. kBytes
   wavefun   :      83575. kBytes
 
     INWAV:  cpu time    0.0000: real time    0.0000
 initial charge density was supplied:
 number of electron     237.9999958 magnetization 
 keeping initial charge density in first step


--------------------------------------------------------------------------------------------------------


 Maximum index for non-local projection operator         1047
 Maximum index for augmentation-charges          207 (set IRDMAX)


--------------------------------------------------------------------------------------------------------


 First call to EWALD:  gamma=   0.175
 Maximum number of real-space cells 3x 4x 2
 Maximum number of reciprocal cells 2x 2x 4

    FEWALD:  cpu time    0.0040: real time    0.0041


--------------------------------------- Iteration      1(   1)  ---------------------------------------


    POTLOK:  cpu time    0.0252: real time    0.0266
    SETDIJ:  cpu time    0.0055: real time    0.0058
     EDDAV:  cpu time   32.3494: real time   32.5008
       DOS:  cpu time    0.0029: real time    0.0030
    --------------------------------------------
      LOOP:  cpu time   32.3832: real time   32.5362

 eigenvalue-minimisations  :  6612
 total energy-change (2. order) : 0.1235823E+04  (-0.1450018E+05)
 number of electron     237.9999958 magnetization 
 augmentation part      237.9999958 magnetization 

 Free energy of the ion-electron system (eV)
  ---------------------------------------------------
  alpha Z        PSCENC =       257.24646823
  Ewald energy   TEWEN  =     -1430.02610980
  -Hartree energ DENC   =     -5702.39822512
  -exchange      EXHF   =         0.00000000
  -V(xc)+E(xc)   XCENC  =       738.23518448
  PAW double counting   =     18804.91891191   -18807.73323486
  entropy T*S    EENTRO =        -0.00889821
  eigenvalues    EBANDS =        16.40768194
  atomic energy  EATOM  =      7359.18108745
  Solvation  Ediel_sol  =         0.00000000
  ---------------------------------------------------
  free energy    TOTEN  =      1235.82286603 eV

  energy without entropy =     1235.83176424  energy(sigma->0) =     1235.82731513


--------------------------------------------------------------------------------------------------------




--------------------------------------- Iteration      1(   2)  ---------------------------------------


     EDDAV:  cpu time   39.6952: real time   39.8415
       DOS:  cpu time    0.0031: real time    0.0031
    --------------------------------------------
      LOOP:  cpu time   39.6983: real time   39.8446

 eigenvalue-minimisations  :  8586
 total energy-change (2. order) :-0.1679166E+04  (-0.1608659E+04)
 number of electron     237.9999958 magnetization 
 augmentation part      237.9999958 magnetization 

 Free energy of the ion-electron system (eV)
  ---------------------------------------------------
  alpha Z        PSCENC =       257.24646823
  Ewald energy   TEWEN  =     -1430.02610980
  -Hartree energ DENC   =     -5702.39822512
  -exchange      EXHF   =         0.00000000
  -V(xc)+E(xc)   XCENC  =       738.23518448
  PAW double counting   =     18804.91891191   -18807.73323486
  entropy T*S    EENTRO =        -0.00000000
  eigenvalues    EBANDS =     -1662.76762259
  atomic energy  EATOM  =      7359.18108745
  Solvation  Ediel_sol  =         0.00000000
  ---------------------------------------------------
  free energy    TOTEN  =      -443.34354030 eV

  energy without entropy =     -443.34354030  energy(sigma->0) =     -443.34354030


--------------------------------------------------------------------------------------------------------




--------------------------------------- Iteration      1(   3)  ---------------------------------------


     EDDAV:  cpu time   39.1258: real time   39.2744
       DOS:  cpu time    0.0033: real time    0.0033
    --------------------------------------------
      LOOP:  cpu time   39.1291: real time   39.2778

 eigenvalue-minimisations  :  8436
 total energy-change (2. order) :-0.1549534E+03  (-0.1540225E+03)
 number of electron     237.9999958 magnetization 
 augmentation part      237.9999958 magnetization 

 Free energy of the ion-electron system (eV)
  ---------------------------------------------------
  alpha Z        PSCENC =       257.24646823
  Ewald energy   TEWEN  =     -1430.02610980
  -Hartree energ DENC   =     -5702.39822512
  -exchange      EXHF   =         0.00000000
  -V(xc)+E(xc)   XCENC  =       738.23518448
  PAW double counting   =     18804.91891191   -18807.73323486
  entropy T*S    EENTRO =        -0.00000000
  eigenvalues    EBANDS =     -1817.72097781
  atomic energy  EATOM  =      7359.18108745
  Solvation  Ediel_sol  =         0.00000000
  ---------------------------------------------------
  free energy    TOTEN  =      -598.29689551 eV

  energy without entropy =     -598.29689551  energy(sigma->0) =     -598.29689551


--------------------------------------------------------------------------------------------------------




--------------------------------------- Iteration      1(   4)  ---------------------------------------


     EDDAV:  cpu time   38.7487: real time   38.8974
       DOS:  cpu time    0.0034: real time    0.0034
    --------------------------------------------
      LOOP:  cpu time   38.7520: real time   38.9008

 eigenvalue-minimisations  :  8328
 total energy-change (2. order) :-0.3144365E+01  (-0.3138619E+01)
 number of electron     237.9999958 magnetization 
 augmentation part      237.9999958 magnetization 

 Free energy of the ion-electron system (eV)
  ---------------------------------------------------
  alpha Z        PSCENC =       257.24646823
  Ewald energy   TEWEN  =     -1430.02610980
  -Hartree energ DENC   =     -5702.39822512
  -exchange      EXHF   =         0.00000000
  -V(xc)+E(xc)   XCENC  =       738.23518448
  PAW double counting   =     18804.91891191   -18807.73323486
  entropy T*S    EENTRO =        -0.00000000
  eigenvalues    EBANDS =     -1820.86534274
  atomic energy  EATOM  =      7359.18108745
  Solvation  Ediel_sol  =         0.00000000
  ---------------------------------------------------
  free energy    TOTEN  =      -601.44126045 eV

  energy without entropy =     -601.44126045  energy(sigma->0) =     -601.44126045


--------------------------------------------------------------------------------------------------------




--------------------------------------- Iteration      1(   5)  ---------------------------------------


     EDDAV:  cpu time   38.3808: real time   38.5364
       DOS:  cpu time    0.0032: real time    0.0033
    --------------------------------------------
      LOOP:  cpu time   38.3840: real time   38.5397

 eigenvalue-minimisations  :  8232
 total energy-change (2. order) :-0.7620079E-01  (-0.7618732E-01)
 number of electron     237.9999958 magnetization 
 augmentation part      237.9999958 magnetization 

 Free energy of the ion-electron system (eV)
  ---------------------------------------------------
  alpha Z        PSCENC =       257.24646823
  Ewald energy   TEWEN  =     -1430.02610980
  -Hartree energ DENC   =     -5702.39822512
  -exchange      EXHF   =         0.00000000
  -V(xc)+E(xc)   XCENC  =       738.23518448
  PAW double counting   =     18804.91891191   -18807.73323486
  entropy T*S    EENTRO =        -0.00000000
  eigenvalues    EBANDS =     -1820.94154353
  atomic energy  EATOM  =      7359.18108745
  Solvation  Ediel_sol  =         0.00000000
  ---------------------------------------------------
  free energy    TOTEN  =      -601.51746124 eV

  energy without entropy =     -601.51746124  energy(sigma->0) =     -601.51746124


--------------------------------------------------------------------------------------------------------




--------------------------------------- Iteration      1(   6)  ---------------------------------------


     EDDAV:  cpu time   41.4148: real time   41.5783
       DOS:  cpu time    0.0029: real time    0.0029
    --------------------------------------------
      LOOP:  cpu time   41.4178: real time   41.5813

 eigenvalue-minimisations  :  9048
 total energy-change (2. order) :-0.2953679E-02  (-0.2953420E-02)
 number of electron     237.9999958 magnetization 
 augmentation part      237.9999958 magnetization 

 Free energy of the ion-electron system (eV)
  ---------------------------------------------------
  alpha Z        PSCENC =       257.24646823
  Ewald energy   TEWEN  =     -1430.02610980
  -Hartree energ DENC   =     -5702.39822512
  -exchange      EXHF   =         0.00000000
  -V(xc)+E(xc)   XCENC  =       738.23518448
  PAW double counting   =     18804.91891191   -18807.73323486
  entropy T*S    EENTRO =        -0.00000000
  eigenvalues    EBANDS =     -1820.94449721
  atomic energy  EATOM  =      7359.18108745
  Solvation  Ediel_sol  =         0.00000000
  ---------------------------------------------------
  free energy    TOTEN  =      -601.52041492 eV

  energy without entropy =     -601.52041492  energy(sigma->0) =     -601.52041492


--------------------------------------------------------------------------------------------------------




--------------------------------------- Iteration      1(   7)  ---------------------------------------


     EDDAV:  cpu time   39.1500: real time   39.3039
       DOS:  cpu time    0.0044: real time    0.0044
    --------------------------------------------
      LOOP:  cpu time   39.1543: real time   39.3083

 eigenvalue-minimisations  :  8436
 total energy-change (2. order) :-0.8963025E-04  (-0.8962856E-04)
 number of electron     237.9999958 magnetization 
 augmentation part      237.9999958 magnetization 

 Free energy of the ion-electron system (eV)
  ---------------------------------------------------
  alpha Z        PSCENC =       257.24646823
  Ewald energy   TEWEN  =     -1430.02610980
  -Hartree energ DENC   =     -5702.39822512
  -exchange      EXHF   =         0.00000000
  -V(xc)+E(xc)   XCENC  =       738.23518448
  PAW double counting   =     18804.91891191   -18807.73323486
  entropy T*S    EENTRO =        -0.00000000
  eigenvalues    EBANDS =     -1820.94458684
  atomic energy  EATOM  =      7359.18108745
  Solvation  Ediel_sol  =         0.00000000
  ---------------------------------------------------
  free energy    TOTEN  =      -601.52050455 eV

  energy without entropy =     -601.52050455  energy(sigma->0) =     -601.52050455


--------------------------------------------------------------------------------------------------------




--------------------------------------- Iteration      1(   8)  ---------------------------------------


     EDDAV:  cpu time   41.9879: real time   42.1666
       DOS:  cpu time    0.0031: real time    0.0031
    --------------------------------------------
      LOOP:  cpu time   41.9910: real time   42.1698

 eigenvalue-minimisations  :  9192
 total energy-change (2. order) :-0.3622254E-05  (-0.3622354E-05)
 number of electron     237.9999958 magnetization 
 augmentation part      237.9999958 magnetization 

 Free energy of the ion-electron system (eV)
  ---------------------------------------------------
  alpha Z        PSCENC =       257.24646823
  Ewald energy   TEWEN  =     -1430.02610980
  -Hartree energ DENC   =     -5702.39822512
  -exchange      EXHF   =         0.00000000
  -V(xc)+E(xc)   XCENC  =       738.23518448
  PAW double counting   =     18804.91891191   -18807.73323486
  entropy T*S    EENTRO =        -0.00000000
  eigenvalues    EBANDS =     -1820.94459046
  atomic energy  EATOM  =      7359.18108745
  Solvation  Ediel_sol  =         0.00000000
  ---------------------------------------------------
  free energy    TOTEN  =      -601.52050817 eV

  energy without entropy =     -601.52050817  energy(sigma->0) =     -601.52050817


--------------------------------------------------------------------------------------------------------




--------------------------------------- Iteration      1(   9)  ---------------------------------------


     EDDAV:  cpu time   33.9479: real time   34.0885
       DOS:  cpu time    0.0030: real time    0.0030
    --------------------------------------------
      LOOP:  cpu time   33.9509: real time   34.0915

 eigenvalue-minimisations  :  6990
 total energy-change (2. order) :-0.1667177E-06  (-0.1666404E-06)
 number of electron     237.9999958 magnetization 
 augmentation part      237.9999958 magnetization 

 Free energy of the ion-electron system (eV)
  ---------------------------------------------------
  alpha Z        PSCENC =       257.24646823
  Ewald energy   TEWEN  =     -1430.02610980
  -Hartree energ DENC   =     -5702.39822512
  -exchange      EXHF   =         0.00000000
  -V(xc)+E(xc)   XCENC  =       738.23518448
  PAW double counting   =     18804.91891191   -18807.73323486
  entropy T*S    EENTRO =        -0.00000000
  eigenvalues    EBANDS =     -1820.94459063
  atomic energy  EATOM  =      7359.18108745
  Solvation  Ediel_sol  =         0.00000000
  ---------------------------------------------------
  free energy    TOTEN  =      -601.52050834 eV

  energy without entropy =     -601.52050834  energy(sigma->0) =     -601.52050834


--------------------------------------------------------------------------------------------------------




 average (electrostatic) potential at core
  the test charge radii are     0.6991  1.1631  0.5201
  (the norm of the test charge is              1.0000)
       1 -54.1677       2 -54.4560       3 -54.5022       4 -54.5068       5 -54.6129
       6 -54.1415       7 -54.2043       8 -54.4087       9 -54.3138      10 -54.3820
      11 -54.1668      12 -55.2193      13 -54.9537      14 -54.9578      15 -54.4903
      16 -54.9578      17 -54.9537      18 -54.4707      19 -54.7366      20 -55.2193
      21 -54.4707      22 -54.4903      23 -54.7210      24 -54.4708      25 -54.7210
      26 -54.6129      27 -54.7366      28 -54.4067      29 -54.4578      30 -54.4067
      31 -54.1677      32 -54.4708      33 -54.4289      34 -54.4289      35 -54.4578
      36 -54.4560      37 -54.5022      38 -54.5068      39 -54.1415      40 -54.2043
      41 -54.4087      42 -54.3138      43 -54.3820      44 -54.1668      45 -36.0852
      46 -36.0852      47 -37.6406      48 -37.6991      49 -37.6734      50 -37.4012
      51 -37.5636      52 -37.4528      53 -37.5204      54 -37.4906      55 -37.6097
      56 -37.7035      57 -37.7922      58 -37.7829      59 -37.6546      60 -37.6105
      61 -37.7046      62 -37.7057      63 -37.7348      64 -37.7890      65 -37.5091
      66 -37.4846      67 -37.5662      68 -37.7964      69 -37.7654      70 -37.7654
      71 -37.7964      72 -37.8283      73 -37.7641      74 -37.8030      75 -37.7641
      76 -37.8283      77 -37.7674      78 -37.7674      79 -37.8030      80 -37.6406
      81 -37.6991      82 -37.6734      83 -37.4012      84 -37.5636      85 -37.4528
      86 -37.5204      87 -37.4906      88 -37.6097      89 -37.7035      90 -37.7922
      91 -37.7829      92 -37.6546      93 -37.6105      94 -37.7046      95 -37.7057
      96 -37.7348      97 -37.7890      98 -37.5091      99 -37.4846     100 -37.5662
 
 
 
 E-fermi :   0.1837     XC(G=0):  -7.2910     alpha+bet : -6.0369


 k-point     1 :       0.0000    0.0000    0.0000
  band No.  band energies     occupation 
      1     -17.9826      2.00000
      2     -17.3462      2.00000
      3     -16.9146      2.00000
      4     -16.0767      2.00000
      5     -16.0502      2.00000
      6     -15.6390      2.00000
      7     -15.5741      2.00000
      8     -15.2185      2.00000
      9     -15.2036      2.00000
     10     -15.1548      2.00000
     11     -15.1337      2.00000
     12     -15.1207      2.00000
     13     -14.8879      2.00000
     14     -14.6129      2.00000
     15     -14.1064      2.00000
     16     -13.9551      2.00000
     17     -13.5743      2.00000
     18     -13.5380      2.00000
     19     -12.9211      2.00000
     20     -12.9014      2.00000
     21     -12.7867      2.00000
     22     -12.7692      2.00000
     23     -12.6902      2.00000
     24     -12.6808      2.00000
     25     -12.6102      2.00000
     26     -12.2933      2.00000
     27     -11.3336      2.00000
     28     -11.0330      2.00000
     29     -10.8784      2.00000
     30     -10.8406      2.00000
     31     -10.7321      2.00000
     32     -10.3083      2.00000
     33     -10.3021      2.00000
     34     -10.1035      2.00000
     35     -10.0981      2.00000
     36      -9.9479      2.00000
     37      -9.9359      2.00000
     38      -9.8490      2.00000
     39      -8.7839      2.00000
     40      -8.7434      2.00000
     41      -8.6291      2.00000
     42      -8.4196      2.00000
     43      -8.3388      2.00000
     44      -7.9821      2.00000
     45      -7.9678      2.00000
     46      -7.3723      2.00000
     47      -7.2786      2.00000
     48      -7.1449      2.00000
     49      -7.0835      2.00000
     50      -7.0743      2.00000
     51      -7.0047      2.00000
     52      -6.9322      2.00000
     53      -6.8719      2.00000
     54      -6.7785      2.00000
     55      -6.6177      2.00000
     56      -6.4921      2.00000
     57      -6.4146      2.00000
     58      -6.4128      2.00000
     59      -6.3325      2.00000
     60      -6.2943      2.00000
     61      -6.1956      2.00000
     62      -6.1451      2.00000
     63      -6.1289      2.00000
     64      -5.9751      2.00000
     65      -5.9314      2.00000
     66      -5.9169      2.00000
     67      -5.9122      2.00000
     68      -5.8073      2.00000
     69      -5.7759      2.00000
     70      -5.7342      2.00000
     71      -5.6395      2.00000
     72      -5.6001      2.00000
     73      -5.5497      2.00000
     74      -5.5202      2.00000
     75      -5.4110      2.00000
     76      -5.3836      2.00000
     77      -5.3526      2.00000
     78      -5.2246      2.00000
     79      -5.1776      2.00000
     80      -5.1184      2.00000
     81      -5.0728      2.00000
     82      -5.0579      2.00000
     83      -4.7362      2.00000
     84      -4.6286      2.00000
     85      -4.5194      2.00000
     86      -4.3813      2.00000
     87      -4.3175      2.00000
     88      -4.3058      2.00000
     89      -4.2777      2.00000
     90      -4.2675      2.00000
     91      -4.2429      2.00000
     92      -4.1727      2.00000
     93      -4.1495      2.00000
     94      -4.1459      2.00000
     95      -4.1054      2.00000
     96      -4.0635      2.00000
     97      -4.0055      2.00000
     98      -3.9937      2.00000
     99      -3.9745      2.00000
    100      -3.7003      2.00000
    101      -3.6037      2.00000
    102      -3.5951      2.00000
    103      -3.5598      2.00000
    104      -3.5040      2.00000
    105      -3.4612      2.00000
    106      -3.1424      2.00000
    107      -2.8891      2.00000
    108      -2.6923      2.00000
    109      -2.6570      2.00000
    110      -2.6027      2.00000
    111      -2.4008      2.00000
    112      -2.2646      2.00000
    113      -1.9997      2.00000
    114      -1.9399      2.00000
    115      -1.9378      2.00000
    116      -1.8848      2.00000
    117      -1.5548      2.00000
    118      -1.0278      2.00000
    119      -0.0531      2.00000
    120       0.7144      0.00000
    121       2.2866      0.00000
    122       2.6201      0.00000
    123       2.7608      0.00000
    124       3.0966      0.00000
    125       3.5065      0.00000
    126       3.5453      0.00000
    127       3.6062      0.00000
    128       3.7160      0.00000
    129       3.7399      0.00000
    130       3.7640      0.00000
    131       3.9472      0.00000
    132       4.3030      0.00000
    133       4.4224      0.00000
    134       4.5230      0.00000
    135       4.5460      0.00000
    136       4.7263      0.00000
    137       4.7651      0.00000
    138       4.8940      0.00000
    139       5.0381      0.00000
    140       5.0478      0.00000
    141       5.1207      0.00000
    142       5.2743      0.00000
    143       5.3581      0.00000
    144       5.4823      0.00000
    145       5.5006      0.00000
    146       5.5234      0.00000
    147       5.6086      0.00000
    148       5.7148      0.00000
    149       5.7433      0.00000
    150       5.9067      0.00000
    151       5.9182      0.00000
    152       5.9545      0.00000
    153       6.0052      0.00000
    154       6.0879      0.00000
    155       6.1345      0.00000
    156       6.2212      0.00000
    157       6.2505      0.00000
    158       6.3248      0.00000
    159       6.4122      0.00000
    160       6.5182      0.00000
    161       6.5901      0.00000
    162       6.6635      0.00000
    163       6.7528      0.00000
    164       6.8584      0.00000
    165       6.9248      0.00000
    166       6.9361      0.00000
    167       7.0273      0.00000
    168       7.2318      0.00000
    169       7.2483      0.00000
    170       7.3094      0.00000
    171       7.3381      0.00000
    172       7.3873      0.00000
    173       7.4285      0.00000
    174       7.4872      0.00000

 k-point     2 :      -0.0863    0.0113   -0.0025
  band No.  band energies     occupation 
      1     -17.9818      2.00000
      2     -17.3491      2.00000
      3     -16.9117      2.00000
      4     -16.0773      2.00000
      5     -16.0496      2.00000
      6     -15.6372      2.00000
      7     -15.5743      2.00000
      8     -15.2188      2.00000
      9     -15.2049      2.00000
     10     -15.1551      2.00000
     11     -15.1342      2.00000
     12     -15.1218      2.00000
     13     -14.8875      2.00000
     14     -14.6135      2.00000
     15     -14.1066      2.00000
     16     -13.9542      2.00000
     17     -13.5741      2.00000
     18     -13.5384      2.00000
     19     -12.9319      2.00000
     20     -12.8904      2.00000
     21     -12.7876      2.00000
     22     -12.7678      2.00000
     23     -12.6902      2.00000
     24     -12.6811      2.00000
     25     -12.6096      2.00000
     26     -12.2919      2.00000
     27     -11.3319      2.00000
     28     -11.0342      2.00000
     29     -10.8814      2.00000
     30     -10.8433      2.00000
     31     -10.7297      2.00000
     32     -10.3126      2.00000
     33     -10.2976      2.00000
     34     -10.1143      2.00000
     35     -10.0866      2.00000
     36      -9.9456      2.00000
     37      -9.9349      2.00000
     38      -9.8493      2.00000
     39      -8.7823      2.00000
     40      -8.7460      2.00000
     41      -8.6288      2.00000
     42      -8.4191      2.00000
     43      -8.3408      2.00000
     44      -7.9858      2.00000
     45      -7.9636      2.00000
     46      -7.3764      2.00000
     47      -7.2808      2.00000
     48      -7.1446      2.00000
     49      -7.0961      2.00000
     50      -7.0737      2.00000
     51      -6.9959      2.00000
     52      -6.9271      2.00000
     53      -6.8691      2.00000
     54      -6.7801      2.00000
     55      -6.6167      2.00000
     56      -6.4904      2.00000
     57      -6.4147      2.00000
     58      -6.4092      2.00000
     59      -6.3282      2.00000
     60      -6.2935      2.00000
     61      -6.1950      2.00000
     62      -6.1470      2.00000
     63      -6.1293      2.00000
     64      -5.9757      2.00000
     65      -5.9283      2.00000
     66      -5.9142      2.00000
     67      -5.9099      2.00000
     68      -5.8008      2.00000
     69      -5.7748      2.00000
     70      -5.7335      2.00000
     71      -5.6386      2.00000
     72      -5.6015      2.00000
     73      -5.5504      2.00000
     74      -5.5231      2.00000
     75      -5.4140      2.00000
     76      -5.3859      2.00000
     77      -5.3550      2.00000
     78      -5.2265      2.00000
     79      -5.1768      2.00000
     80      -5.1188      2.00000
     81      -5.0731      2.00000
     82      -5.0580      2.00000
     83      -4.7392      2.00000
     84      -4.6570      2.00000
     85      -4.5144      2.00000
     86      -4.3846      2.00000
     87      -4.3239      2.00000
     88      -4.2972      2.00000
     89      -4.2789      2.00000
     90      -4.2622      2.00000
     91      -4.2442      2.00000
     92      -4.1707      2.00000
     93      -4.1558      2.00000
     94      -4.1403      2.00000
     95      -4.1040      2.00000
     96      -4.0629      2.00000
     97      -4.0073      2.00000
     98      -3.9944      2.00000
     99      -3.9766      2.00000
    100      -3.7025      2.00000
    101      -3.6199      2.00000
    102      -3.5784      2.00000
    103      -3.5576      2.00000
    104      -3.5031      2.00000
    105      -3.4646      2.00000
    106      -3.1311      2.00000
    107      -2.8967      2.00000
    108      -2.6896      2.00000
    109      -2.6578      2.00000
    110      -2.6034      2.00000
    111      -2.3946      2.00000
    112      -2.2627      2.00000
    113      -1.9998      2.00000
    114      -1.9411      2.00000
    115      -1.9326      2.00000
    116      -1.8775      2.00000
    117      -1.5545      2.00000
    118      -1.0297      2.00000
    119      -0.0569      2.00000
    120       0.7053      0.00000
    121       2.2992      0.00000
    122       2.6202      0.00000
    123       2.7637      0.00000
    124       3.1031      0.00000
    125       3.4988      0.00000
    126       3.5386      0.00000
    127       3.6212      0.00000
    128       3.6953      0.00000
    129       3.7550      0.00000
    130       3.7689      0.00000
    131       3.9662      0.00000
    132       4.2284      0.00000
    133       4.4501      0.00000
    134       4.5508      0.00000
    135       4.5636      0.00000
    136       4.7200      0.00000
    137       4.7423      0.00000
    138       4.8821      0.00000
    139       5.0058      0.00000
    140       5.0884      0.00000
    141       5.1425      0.00000
    142       5.2367      0.00000
    143       5.3750      0.00000
    144       5.4700      0.00000
    145       5.4918      0.00000
    146       5.5487      0.00000
    147       5.6132      0.00000
    148       5.6837      0.00000
    149       5.7994      0.00000
    150       5.8629      0.00000
    151       5.8914      0.00000
    152       5.9477      0.00000
    153       6.0081      0.00000
    154       6.1344      0.00000
    155       6.1576      0.00000
    156       6.2190      0.00000
    157       6.2399      0.00000
    158       6.3280      0.00000
    159       6.4420      0.00000
    160       6.5034      0.00000
    161       6.5979      0.00000
    162       6.6738      0.00000
    163       6.7245      0.00000
    164       6.8723      0.00000
    165       6.9052      0.00000
    166       6.9482      0.00000
    167       7.0067      0.00000
    168       7.1988      0.00000
    169       7.2632      0.00000
    170       7.2950      0.00000
    171       7.3391      0.00000
    172       7.3788      0.00000
    173       7.4474      0.00000
    174       7.5946      0.00000

 k-point     3 :       0.0863   -0.0113    0.0025
  band No.  band energies     occupation 
      1     -17.9818      2.00000
      2     -17.3491      2.00000
      3     -16.9117      2.00000
      4     -16.0773      2.00000
      5     -16.0496      2.00000
      6     -15.6372      2.00000
      7     -15.5743      2.00000
      8     -15.2188      2.00000
      9     -15.2049      2.00000
     10     -15.1551      2.00000
     11     -15.1342      2.00000
     12     -15.1218      2.00000
     13     -14.8875      2.00000
     14     -14.6135      2.00000
     15     -14.1066      2.00000
     16     -13.9542      2.00000
     17     -13.5741      2.00000
     18     -13.5384      2.00000
     19     -12.9319      2.00000
     20     -12.8904      2.00000
     21     -12.7876      2.00000
     22     -12.7678      2.00000
     23     -12.6902      2.00000
     24     -12.6811      2.00000
     25     -12.6096      2.00000
     26     -12.2919      2.00000
     27     -11.3319      2.00000
     28     -11.0342      2.00000
     29     -10.8814      2.00000
     30     -10.8433      2.00000
     31     -10.7297      2.00000
     32     -10.3126      2.00000
     33     -10.2976      2.00000
     34     -10.1143      2.00000
     35     -10.0866      2.00000
     36      -9.9456      2.00000
     37      -9.9349      2.00000
     38      -9.8493      2.00000
     39      -8.7823      2.00000
     40      -8.7460      2.00000
     41      -8.6288      2.00000
     42      -8.4191      2.00000
     43      -8.3408      2.00000
     44      -7.9858      2.00000
     45      -7.9636      2.00000
     46      -7.3764      2.00000
     47      -7.2808      2.00000
     48      -7.1446      2.00000
     49      -7.0961      2.00000
     50      -7.0737      2.00000
     51      -6.9959      2.00000
     52      -6.9271      2.00000
     53      -6.8691      2.00000
     54      -6.7801      2.00000
     55      -6.6167      2.00000
     56      -6.4904      2.00000
     57      -6.4147      2.00000
     58      -6.4092      2.00000
     59      -6.3282      2.00000
     60      -6.2935      2.00000
     61      -6.1950      2.00000
     62      -6.1470      2.00000
     63      -6.1293      2.00000
     64      -5.9757      2.00000
     65      -5.9283      2.00000
     66      -5.9142      2.00000
     67      -5.9099      2.00000
     68      -5.8008      2.00000
     69      -5.7748      2.00000
     70      -5.7335      2.00000
     71      -5.6386      2.00000
     72      -5.6015      2.00000
     73      -5.5504      2.00000
     74      -5.5231      2.00000
     75      -5.4140      2.00000
     76      -5.3859      2.00000
     77      -5.3550      2.00000
     78      -5.2265      2.00000
     79      -5.1768      2.00000
     80      -5.1188      2.00000
     81      -5.0731      2.00000
     82      -5.0580      2.00000
     83      -4.7392      2.00000
     84      -4.6570      2.00000
     85      -4.5144      2.00000
     86      -4.3846      2.00000
     87      -4.3239      2.00000
     88      -4.2972      2.00000
     89      -4.2789      2.00000
     90      -4.2622      2.00000
     91      -4.2442      2.00000
     92      -4.1707      2.00000
     93      -4.1558      2.00000
     94      -4.1403      2.00000
     95      -4.1040      2.00000
     96      -4.0629      2.00000
     97      -4.0073      2.00000
     98      -3.9944      2.00000
     99      -3.9766      2.00000
    100      -3.7025      2.00000
    101      -3.6199      2.00000
    102      -3.5784      2.00000
    103      -3.5576      2.00000
    104      -3.5031      2.00000
    105      -3.4646      2.00000
    106      -3.1311      2.00000
    107      -2.8967      2.00000
    108      -2.6896      2.00000
    109      -2.6578      2.00000
    110      -2.6034      2.00000
    111      -2.3946      2.00000
    112      -2.2627      2.00000
    113      -1.9998      2.00000
    114      -1.9411      2.00000
    115      -1.9326      2.00000
    116      -1.8775      2.00000
    117      -1.5545      2.00000
    118      -1.0297      2.00000
    119      -0.0569      2.00000
    120       0.7053      0.00000
    121       2.2992      0.00000
    122       2.6202      0.00000
    123       2.7637      0.00000
    124       3.1031      0.00000
    125       3.4988      0.00000
    126       3.5386      0.00000
    127       3.6212      0.00000
    128       3.6953      0.00000
    129       3.7550      0.00000
    130       3.7689      0.00000
    131       3.9662      0.00000
    132       4.2284      0.00000
    133       4.4501      0.00000
    134       4.5508      0.00000
    135       4.5636      0.00000
    136       4.7200      0.00000
    137       4.7423      0.00000
    138       4.8821      0.00000
    139       5.0058      0.00000
    140       5.0884      0.00000
    141       5.1425      0.00000
    142       5.2367      0.00000
    143       5.3750      0.00000
    144       5.4700      0.00000
    145       5.4918      0.00000
    146       5.5487      0.00000
    147       5.6132      0.00000
    148       5.6837      0.00000
    149       5.7994      0.00000
    150       5.8629      0.00000
    151       5.8914      0.00000
    152       5.9477      0.00000
    153       6.0081      0.00000
    154       6.1344      0.00000
    155       6.1576      0.00000
    156       6.2190      0.00000
    157       6.2399      0.00000
    158       6.3280      0.00000
    159       6.4420      0.00000
    160       6.5034      0.00000
    161       6.5979      0.00000
    162       6.6738      0.00000
    163       6.7245      0.00000
    164       6.8723      0.00000
    165       6.9052      0.00000
    166       6.9482      0.00000
    167       7.0067      0.00000
    168       7.1984      0.00000
    169       7.2634      0.00000
    170       7.2943      0.00000
    171       7.3391      0.00000
    172       7.3740      0.00000
    173       7.4504      0.00000
    174       7.6000      0.00000

 k-point     4 :      -0.0009   -0.0810    0.0391
  band No.  band energies     occupation 
      1     -17.9794      2.00000
      2     -17.3539      2.00000
      3     -16.9121      2.00000
      4     -16.0747      2.00000
      5     -16.0496      2.00000
      6     -15.6364      2.00000
      7     -15.5727      2.00000
      8     -15.2225      2.00000
      9     -15.2037      2.00000
     10     -15.1529      2.00000
     11     -15.1337      2.00000
     12     -15.1206      2.00000
     13     -14.8903      2.00000
     14     -14.6127      2.00000
     15     -14.1060      2.00000
     16     -13.9590      2.00000
     17     -13.5725      2.00000
     18     -13.5377      2.00000
     19     -12.9198      2.00000
     20     -12.9008      2.00000
     21     -12.7880      2.00000
     22     -12.7699      2.00000
     23     -12.6904      2.00000
     24     -12.6822      2.00000
     25     -12.6081      2.00000
     26     -12.2898      2.00000
     27     -11.3319      2.00000
     28     -11.0375      2.00000
     29     -10.8894      2.00000
     30     -10.8433      2.00000
     31     -10.7333      2.00000
     32     -10.3077      2.00000
     33     -10.2992      2.00000
     34     -10.1026      2.00000
     35     -10.0893      2.00000
     36      -9.9438      2.00000
     37      -9.9344      2.00000
     38      -9.8529      2.00000
     39      -8.7733      2.00000
     40      -8.7423      2.00000
     41      -8.6285      2.00000
     42      -8.4146      2.00000
     43      -8.3483      2.00000
     44      -7.9790      2.00000
     45      -7.9593      2.00000
     46      -7.3984      2.00000
     47      -7.2852      2.00000
     48      -7.1346      2.00000
     49      -7.0987      2.00000
     50      -7.0556      2.00000
     51      -7.0024      2.00000
     52      -6.9312      2.00000
     53      -6.8703      2.00000
     54      -6.7846      2.00000
     55      -6.6142      2.00000
     56      -6.4986      2.00000
     57      -6.4304      2.00000
     58      -6.3987      2.00000
     59      -6.3388      2.00000
     60      -6.2888      2.00000
     61      -6.1850      2.00000
     62      -6.1503      2.00000
     63      -6.1213      2.00000
     64      -6.0073      2.00000
     65      -5.9550      2.00000
     66      -5.9226      2.00000
     67      -5.9036      2.00000
     68      -5.7836      2.00000
     69      -5.7422      2.00000
     70      -5.6956      2.00000
     71      -5.6416      2.00000
     72      -5.6014      2.00000
     73      -5.5523      2.00000
     74      -5.5214      2.00000
     75      -5.4102      2.00000
     76      -5.4007      2.00000
     77      -5.3648      2.00000
     78      -5.2260      2.00000
     79      -5.1791      2.00000
     80      -5.1211      2.00000
     81      -5.0779      2.00000
     82      -5.0524      2.00000
     83      -4.7497      2.00000
     84      -4.6331      2.00000
     85      -4.5134      2.00000
     86      -4.3762      2.00000
     87      -4.3217      2.00000
     88      -4.3012      2.00000
     89      -4.2868      2.00000
     90      -4.2567      2.00000
     91      -4.2398      2.00000
     92      -4.1861      2.00000
     93      -4.1600      2.00000
     94      -4.1501      2.00000
     95      -4.0825      2.00000
     96      -4.0560      2.00000
     97      -4.0114      2.00000
     98      -3.9966      2.00000
     99      -3.9704      2.00000
    100      -3.7126      2.00000
    101      -3.6182      2.00000
    102      -3.6041      2.00000
    103      -3.5565      2.00000
    104      -3.5128      2.00000
    105      -3.4574      2.00000
    106      -3.1365      2.00000
    107      -2.8909      2.00000
    108      -2.6897      2.00000
    109      -2.6541      2.00000
    110      -2.5995      2.00000
    111      -2.4051      2.00000
    112      -2.2599      2.00000
    113      -1.9976      2.00000
    114      -1.9394      2.00000
    115      -1.9239      2.00000
    116      -1.8807      2.00000
    117      -1.5543      2.00000
    118      -1.0369      2.00000
    119      -0.0634      2.00000
    120       0.7365      0.00000
    121       2.2808      0.00000
    122       2.6218      0.00000
    123       2.7678      0.00000
    124       3.1095      0.00000
    125       3.5008      0.00000
    126       3.5447      0.00000
    127       3.6185      0.00000
    128       3.7119      0.00000
    129       3.7481      0.00000
    130       3.7705      0.00000
    131       3.9625      0.00000
    132       4.3063      0.00000
    133       4.4279      0.00000
    134       4.4939      0.00000
    135       4.5734      0.00000
    136       4.6850      0.00000
    137       4.7401      0.00000
    138       4.9128      0.00000
    139       5.0031      0.00000
    140       5.0770      0.00000
    141       5.1467      0.00000
    142       5.2728      0.00000
    143       5.3533      0.00000
    144       5.4588      0.00000
    145       5.4919      0.00000
    146       5.5184      0.00000
    147       5.5970      0.00000
    148       5.7165      0.00000
    149       5.7472      0.00000
    150       5.8270      0.00000
    151       5.9342      0.00000
    152       5.9664      0.00000
    153       6.0146      0.00000
    154       6.0711      0.00000
    155       6.1455      0.00000
    156       6.2326      0.00000
    157       6.2615      0.00000
    158       6.3595      0.00000
    159       6.4467      0.00000
    160       6.5094      0.00000
    161       6.6019      0.00000
    162       6.6450      0.00000
    163       6.7732      0.00000
    164       6.8451      0.00000
    165       6.9265      0.00000
    166       6.9787      0.00000
    167       7.0213      0.00000
    168       7.2222      0.00000
    169       7.2272      0.00000
    170       7.3067      0.00000
    171       7.3512      0.00000
    172       7.3696      0.00000
    173       7.4590      0.00000
    174       7.4864      0.00000

 k-point     5 :       0.0009    0.0810   -0.0391
  band No.  band energies     occupation 
      1     -17.9794      2.00000
      2     -17.3539      2.00000
      3     -16.9121      2.00000
      4     -16.0747      2.00000
      5     -16.0496      2.00000
      6     -15.6364      2.00000
      7     -15.5727      2.00000
      8     -15.2225      2.00000
      9     -15.2037      2.00000
     10     -15.1529      2.00000
     11     -15.1337      2.00000
     12     -15.1206      2.00000
     13     -14.8903      2.00000
     14     -14.6127      2.00000
     15     -14.1060      2.00000
     16     -13.9590      2.00000
     17     -13.5725      2.00000
     18     -13.5377      2.00000
     19     -12.9198      2.00000
     20     -12.9008      2.00000
     21     -12.7880      2.00000
     22     -12.7699      2.00000
     23     -12.6904      2.00000
     24     -12.6822      2.00000
     25     -12.6081      2.00000
     26     -12.2898      2.00000
     27     -11.3319      2.00000
     28     -11.0375      2.00000
     29     -10.8894      2.00000
     30     -10.8433      2.00000
     31     -10.7333      2.00000
     32     -10.3077      2.00000
     33     -10.2992      2.00000
     34     -10.1026      2.00000
     35     -10.0893      2.00000
     36      -9.9438      2.00000
     37      -9.9344      2.00000
     38      -9.8529      2.00000
     39      -8.7733      2.00000
     40      -8.7423      2.00000
     41      -8.6285      2.00000
     42      -8.4146      2.00000
     43      -8.3483      2.00000
     44      -7.9790      2.00000
     45      -7.9593      2.00000
     46      -7.3984      2.00000
     47      -7.2852      2.00000
     48      -7.1346      2.00000
     49      -7.0987      2.00000
     50      -7.0556      2.00000
     51      -7.0024      2.00000
     52      -6.9312      2.00000
     53      -6.8703      2.00000
     54      -6.7846      2.00000
     55      -6.6142      2.00000
     56      -6.4986      2.00000
     57      -6.4304      2.00000
     58      -6.3987      2.00000
     59      -6.3388      2.00000
     60      -6.2888      2.00000
     61      -6.1850      2.00000
     62      -6.1503      2.00000
     63      -6.1213      2.00000
     64      -6.0073      2.00000
     65      -5.9550      2.00000
     66      -5.9226      2.00000
     67      -5.9036      2.00000
     68      -5.7836      2.00000
     69      -5.7422      2.00000
     70      -5.6956      2.00000
     71      -5.6416      2.00000
     72      -5.6014      2.00000
     73      -5.5523      2.00000
     74      -5.5214      2.00000
     75      -5.4102      2.00000
     76      -5.4007      2.00000
     77      -5.3648      2.00000
     78      -5.2260      2.00000
     79      -5.1791      2.00000
     80      -5.1211      2.00000
     81      -5.0779      2.00000
     82      -5.0524      2.00000
     83      -4.7497      2.00000
     84      -4.6331      2.00000
     85      -4.5134      2.00000
     86      -4.3762      2.00000
     87      -4.3217      2.00000
     88      -4.3012      2.00000
     89      -4.2868      2.00000
     90      -4.2567      2.00000
     91      -4.2398      2.00000
     92      -4.1861      2.00000
     93      -4.1600      2.00000
     94      -4.1501      2.00000
     95      -4.0825      2.00000
     96      -4.0560      2.00000
     97      -4.0114      2.00000
     98      -3.9966      2.00000
     99      -3.9704      2.00000
    100      -3.7126      2.00000
    101      -3.6182      2.00000
    102      -3.6041      2.00000
    103      -3.5565      2.00000
    104      -3.5128      2.00000
    105      -3.4574      2.00000
    106      -3.1365      2.00000
    107      -2.8909      2.00000
    108      -2.6897      2.00000
    109      -2.6541      2.00000
    110      -2.5995      2.00000
    111      -2.4051      2.00000
    112      -2.2599      2.00000
    113      -1.9976      2.00000
    114      -1.9394      2.00000
    115      -1.9239      2.00000
    116      -1.8807      2.00000
    117      -1.5543      2.00000
    118      -1.0369      2.00000
    119      -0.0634      2.00000
    120       0.7365      0.00000
    121       2.2808      0.00000
    122       2.6218      0.00000
    123       2.7678      0.00000
    124       3.1095      0.00000
    125       3.5008      0.00000
    126       3.5447      0.00000
    127       3.6185      0.00000
    128       3.7119      0.00000
    129       3.7481      0.00000
    130       3.7705      0.00000
    131       3.9625      0.00000
    132       4.3063      0.00000
    133       4.4279      0.00000
    134       4.4939      0.00000
    135       4.5734      0.00000
    136       4.6850      0.00000
    137       4.7401      0.00000
    138       4.9128      0.00000
    139       5.0031      0.00000
    140       5.0770      0.00000
    141       5.1467      0.00000
    142       5.2728      0.00000
    143       5.3533      0.00000
    144       5.4588      0.00000
    145       5.4919      0.00000
    146       5.5184      0.00000
    147       5.5970      0.00000
    148       5.7165      0.00000
    149       5.7472      0.00000
    150       5.8270      0.00000
    151       5.9342      0.00000
    152       5.9664      0.00000
    153       6.0146      0.00000
    154       6.0711      0.00000
    155       6.1455      0.00000
    156       6.2326      0.00000
    157       6.2615      0.00000
    158       6.3595      0.00000
    159       6.4467      0.00000
    160       6.5094      0.00000
    161       6.6019      0.00000
    162       6.6450      0.00000
    163       6.7732      0.00000
    164       6.8451      0.00000
    165       6.9265      0.00000
    166       6.9787      0.00000
    167       7.0213      0.00000
    168       7.2229      0.00000
    169       7.2273      0.00000
    170       7.3082      0.00000
    171       7.3513      0.00000
    172       7.3695      0.00000
    173       7.4583      0.00000
    174       7.4931      0.00000

 k-point     6 :      -0.0003    0.0010   -0.1749
  band No.  band energies     occupation 
      1     -17.9826      2.00000
      2     -17.3462      2.00000
      3     -16.9146      2.00000
      4     -16.0767      2.00000
      5     -16.0502      2.00000
      6     -15.6370      2.00000
      7     -15.5763      2.00000
      8     -15.2186      2.00000
      9     -15.2031      2.00000
     10     -15.1545      2.00000
     11     -15.1345      2.00000
     12     -15.1203      2.00000
     13     -14.8879      2.00000
     14     -14.6129      2.00000
     15     -14.1060      2.00000
     16     -13.9551      2.00000
     17     -13.5743      2.00000
     18     -13.5387      2.00000
     19     -12.9214      2.00000
     20     -12.9011      2.00000
     21     -12.7872      2.00000
     22     -12.7684      2.00000
     23     -12.6900      2.00000
     24     -12.6810      2.00000
     25     -12.6102      2.00000
     26     -12.2933      2.00000
     27     -11.3299      2.00000
     28     -11.0330      2.00000
     29     -10.8804      2.00000
     30     -10.8607      2.00000
     31     -10.7132      2.00000
     32     -10.3084      2.00000
     33     -10.3022      2.00000
     34     -10.1035      2.00000
     35     -10.0975      2.00000
     36      -9.9552      2.00000
     37      -9.9247      2.00000
     38      -9.8534      2.00000
     39      -8.7825      2.00000
     40      -8.7474      2.00000
     41      -8.6291      2.00000
     42      -8.4143      2.00000
     43      -8.3385      2.00000
     44      -7.9886      2.00000
     45      -7.9670      2.00000
     46      -7.3722      2.00000
     47      -7.2754      2.00000
     48      -7.1446      2.00000
     49      -7.0840      2.00000
     50      -7.0732      2.00000
     51      -7.0040      2.00000
     52      -6.9317      2.00000
     53      -6.8745      2.00000
     54      -6.7788      2.00000
     55      -6.6144      2.00000
     56      -6.4981      2.00000
     57      -6.4293      2.00000
     58      -6.3957      2.00000
     59      -6.3319      2.00000
     60      -6.2950      2.00000
     61      -6.1921      2.00000
     62      -6.1507      2.00000
     63      -6.1223      2.00000
     64      -5.9818      2.00000
     65      -5.9295      2.00000
     66      -5.9208      2.00000
     67      -5.9013      2.00000
     68      -5.8092      2.00000
     69      -5.7824      2.00000
     70      -5.7359      2.00000
     71      -5.6375      2.00000
     72      -5.5984      2.00000
     73      -5.5526      2.00000
     74      -5.5177      2.00000
     75      -5.4108      2.00000
     76      -5.3839      2.00000
     77      -5.3528      2.00000
     78      -5.2238      2.00000
     79      -5.1807      2.00000
     80      -5.1174      2.00000
     81      -5.0732      2.00000
     82      -5.0577      2.00000
     83      -4.7364      2.00000
     84      -4.6284      2.00000
     85      -4.5106      2.00000
     86      -4.3874      2.00000
     87      -4.3184      2.00000
     88      -4.3051      2.00000
     89      -4.2788      2.00000
     90      -4.2663      2.00000
     91      -4.2379      2.00000
     92      -4.1682      2.00000
     93      -4.1656      2.00000
     94      -4.1388      2.00000
     95      -4.1012      2.00000
     96      -4.0612      2.00000
     97      -4.0088      2.00000
     98      -3.9965      2.00000
     99      -3.9760      2.00000
    100      -3.7003      2.00000
    101      -3.6049      2.00000
    102      -3.5976      2.00000
    103      -3.5574      2.00000
    104      -3.5076      2.00000
    105      -3.4563      2.00000
    106      -3.1423      2.00000
    107      -2.8899      2.00000
    108      -2.6915      2.00000
    109      -2.6589      2.00000
    110      -2.6006      2.00000
    111      -2.4039      2.00000
    112      -2.2551      2.00000
    113      -2.0077      2.00000
    114      -1.9490      2.00000
    115      -1.9292      2.00000
    116      -1.8848      2.00000
    117      -1.5531      2.00000
    118      -1.0279      2.00000
    119      -0.0530      2.00000
    120       0.7144      0.00000
    121       2.2866      0.00000
    122       2.6195      0.00000
    123       2.7608      0.00000
    124       3.0988      0.00000
    125       3.5000      0.00000
    126       3.5425      0.00000
    127       3.6148      0.00000
    128       3.6872      0.00000
    129       3.7463      0.00000
    130       3.7874      0.00000
    131       3.9640      0.00000
    132       4.2969      0.00000
    133       4.4277      0.00000
    134       4.4675      0.00000
    135       4.5415      0.00000
    136       4.7229      0.00000
    137       4.7901      0.00000
    138       4.9279      0.00000
    139       5.0312      0.00000
    140       5.0623      0.00000
    141       5.1272      0.00000
    142       5.2869      0.00000
    143       5.3541      0.00000
    144       5.4466      0.00000
    145       5.4993      0.00000
    146       5.5189      0.00000
    147       5.6150      0.00000
    148       5.7019      0.00000
    149       5.7432      0.00000
    150       5.8414      0.00000
    151       5.9194      0.00000
    152       5.9767      0.00000
    153       6.0234      0.00000
    154       6.0984      0.00000
    155       6.1646      0.00000
    156       6.2022      0.00000
    157       6.2976      0.00000
    158       6.3364      0.00000
    159       6.3840      0.00000
    160       6.4776      0.00000
    161       6.6206      0.00000
    162       6.6371      0.00000
    163       6.7652      0.00000
    164       6.8736      0.00000
    165       6.9305      0.00000
    166       6.9353      0.00000
    167       7.0373      0.00000
    168       7.1996      0.00000
    169       7.2316      0.00000
    170       7.2821      0.00000
    171       7.3363      0.00000
    172       7.4135      0.00000
    173       7.4630      0.00000
    174       7.5080      0.00000

 k-point     7 :       0.0003   -0.0010    0.1749
  band No.  band energies     occupation 
      1     -17.9826      2.00000
      2     -17.3462      2.00000
      3     -16.9146      2.00000
      4     -16.0767      2.00000
      5     -16.0502      2.00000
      6     -15.6370      2.00000
      7     -15.5763      2.00000
      8     -15.2186      2.00000
      9     -15.2031      2.00000
     10     -15.1545      2.00000
     11     -15.1345      2.00000
     12     -15.1203      2.00000
     13     -14.8879      2.00000
     14     -14.6129      2.00000
     15     -14.1060      2.00000
     16     -13.9551      2.00000
     17     -13.5743      2.00000
     18     -13.5387      2.00000
     19     -12.9214      2.00000
     20     -12.9011      2.00000
     21     -12.7872      2.00000
     22     -12.7684      2.00000
     23     -12.6900      2.00000
     24     -12.6810      2.00000
     25     -12.6102      2.00000
     26     -12.2933      2.00000
     27     -11.3299      2.00000
     28     -11.0330      2.00000
     29     -10.8804      2.00000
     30     -10.8607      2.00000
     31     -10.7132      2.00000
     32     -10.3084      2.00000
     33     -10.3022      2.00000
     34     -10.1035      2.00000
     35     -10.0975      2.00000
     36      -9.9552      2.00000
     37      -9.9247      2.00000
     38      -9.8534      2.00000
     39      -8.7825      2.00000
     40      -8.7474      2.00000
     41      -8.6291      2.00000
     42      -8.4143      2.00000
     43      -8.3385      2.00000
     44      -7.9886      2.00000
     45      -7.9670      2.00000
     46      -7.3722      2.00000
     47      -7.2754      2.00000
     48      -7.1446      2.00000
     49      -7.0840      2.00000
     50      -7.0732      2.00000
     51      -7.0040      2.00000
     52      -6.9317      2.00000
     53      -6.8745      2.00000
     54      -6.7788      2.00000
     55      -6.6144      2.00000
     56      -6.4981      2.00000
     57      -6.4293      2.00000
     58      -6.3957      2.00000
     59      -6.3319      2.00000
     60      -6.2950      2.00000
     61      -6.1921      2.00000
     62      -6.1507      2.00000
     63      -6.1223      2.00000
     64      -5.9818      2.00000
     65      -5.9295      2.00000
     66      -5.9208      2.00000
     67      -5.9013      2.00000
     68      -5.8092      2.00000
     69      -5.7824      2.00000
     70      -5.7359      2.00000
     71      -5.6375      2.00000
     72      -5.5984      2.00000
     73      -5.5526      2.00000
     74      -5.5177      2.00000
     75      -5.4108      2.00000
     76      -5.3839      2.00000
     77      -5.3528      2.00000
     78      -5.2238      2.00000
     79      -5.1807      2.00000
     80      -5.1174      2.00000
     81      -5.0732      2.00000
     82      -5.0577      2.00000
     83      -4.7364      2.00000
     84      -4.6284      2.00000
     85      -4.5106      2.00000
     86      -4.3874      2.00000
     87      -4.3184      2.00000
     88      -4.3051      2.00000
     89      -4.2788      2.00000
     90      -4.2663      2.00000
     91      -4.2379      2.00000
     92      -4.1682      2.00000
     93      -4.1656      2.00000
     94      -4.1388      2.00000
     95      -4.1012      2.00000
     96      -4.0612      2.00000
     97      -4.0088      2.00000
     98      -3.9965      2.00000
     99      -3.9760      2.00000
    100      -3.7003      2.00000
    101      -3.6049      2.00000
    102      -3.5976      2.00000
    103      -3.5574      2.00000
    104      -3.5076      2.00000
    105      -3.4563      2.00000
    106      -3.1423      2.00000
    107      -2.8899      2.00000
    108      -2.6915      2.00000
    109      -2.6589      2.00000
    110      -2.6006      2.00000
    111      -2.4039      2.00000
    112      -2.2551      2.00000
    113      -2.0077      2.00000
    114      -1.9490      2.00000
    115      -1.9292      2.00000
    116      -1.8848      2.00000
    117      -1.5531      2.00000
    118      -1.0279      2.00000
    119      -0.0530      2.00000
    120       0.7144      0.00000
    121       2.2866      0.00000
    122       2.6195      0.00000
    123       2.7608      0.00000
    124       3.0988      0.00000
    125       3.5000      0.00000
    126       3.5425      0.00000
    127       3.6148      0.00000
    128       3.6872      0.00000
    129       3.7463      0.00000
    130       3.7874      0.00000
    131       3.9640      0.00000
    132       4.2969      0.00000
    133       4.4277      0.00000
    134       4.4675      0.00000
    135       4.5415      0.00000
    136       4.7229      0.00000
    137       4.7901      0.00000
    138       4.9279      0.00000
    139       5.0312      0.00000
    140       5.0623      0.00000
    141       5.1272      0.00000
    142       5.2869      0.00000
    143       5.3541      0.00000
    144       5.4466      0.00000
    145       5.4993      0.00000
    146       5.5189      0.00000
    147       5.6150      0.00000
    148       5.7019      0.00000
    149       5.7432      0.00000
    150       5.8414      0.00000
    151       5.9194      0.00000
    152       5.9767      0.00000
    153       6.0234      0.00000
    154       6.0984      0.00000
    155       6.1646      0.00000
    156       6.2022      0.00000
    157       6.2976      0.00000
    158       6.3364      0.00000
    159       6.3840      0.00000
    160       6.4776      0.00000
    161       6.6206      0.00000
    162       6.6371      0.00000
    163       6.7652      0.00000
    164       6.8736      0.00000
    165       6.9305      0.00000
    166       6.9353      0.00000
    167       7.0373      0.00000
    168       7.1996      0.00000
    169       7.2308      0.00000
    170       7.2821      0.00000
    171       7.3353      0.00000
    172       7.4122      0.00000
    173       7.4567      0.00000
    174       7.4952      0.00000

 k-point     8 :      -0.0872   -0.0696    0.0366
  band No.  band energies     occupation 
      1     -17.9784      2.00000
      2     -17.3610      2.00000
      3     -16.9024      2.00000
      4     -16.0782      2.00000
      5     -16.0486      2.00000
      6     -15.6352      2.00000
      7     -15.5732      2.00000
      8     -15.2213      2.00000
      9     -15.2059      2.00000
     10     -15.1531      2.00000
     11     -15.1338      2.00000
     12     -15.1241      2.00000
     13     -14.8882      2.00000
     14     -14.6147      2.00000
     15     -14.1065      2.00000
     16     -13.9571      2.00000
     17     -13.5729      2.00000
     18     -13.5382      2.00000
     19     -12.9311      2.00000
     20     -12.8905      2.00000
     21     -12.7868      2.00000
     22     -12.7696      2.00000
     23     -12.6904      2.00000
     24     -12.6829      2.00000
     25     -12.6056      2.00000
     26     -12.2829      2.00000
     27     -11.3286      2.00000
     28     -11.0412      2.00000
     29     -10.9020      2.00000
     30     -10.8453      2.00000
     31     -10.7311      2.00000
     32     -10.3089      2.00000
     33     -10.2973      2.00000
     34     -10.1064      2.00000
     35     -10.0885      2.00000
     36      -9.9375      2.00000
     37      -9.9306      2.00000
     38      -9.8533      2.00000
     39      -8.7655      2.00000
     40      -8.7458      2.00000
     41      -8.6282      2.00000
     42      -8.4122      2.00000
     43      -8.3565      2.00000
     44      -7.9766      2.00000
     45      -7.9551      2.00000
     46      -7.4199      2.00000
     47      -7.2890      2.00000
     48      -7.1361      2.00000
     49      -7.0939      2.00000
     50      -7.0665      2.00000
     51      -6.9989      2.00000
     52      -6.9229      2.00000
     53      -6.8669      2.00000
     54      -6.7898      2.00000
     55      -6.6087      2.00000
     56      -6.4943      2.00000
     57      -6.4271      2.00000
     58      -6.4001      2.00000
     59      -6.3370      2.00000
     60      -6.2847      2.00000
     61      -6.1802      2.00000
     62      -6.1528      2.00000
     63      -6.1183      2.00000
     64      -6.0018      2.00000
     65      -5.9390      2.00000
     66      -5.9184      2.00000
     67      -5.8978      2.00000
     68      -5.7852      2.00000
     69      -5.7478      2.00000
     70      -5.6846      2.00000
     71      -5.6442      2.00000
     72      -5.6022      2.00000
     73      -5.5548      2.00000
     74      -5.5205      2.00000
     75      -5.4186      2.00000
     76      -5.4059      2.00000
     77      -5.3783      2.00000
     78      -5.2259      2.00000
     79      -5.1788      2.00000
     80      -5.1231      2.00000
     81      -5.0766      2.00000
     82      -5.0509      2.00000
     83      -4.7607      2.00000
     84      -4.6760      2.00000
     85      -4.5043      2.00000
     86      -4.3767      2.00000
     87      -4.3230      2.00000
     88      -4.2901      2.00000
     89      -4.2846      2.00000
     90      -4.2499      2.00000
     91      -4.2277      2.00000
     92      -4.1856      2.00000
     93      -4.1596      2.00000
     94      -4.1524      2.00000
     95      -4.0857      2.00000
     96      -4.0572      2.00000
     97      -4.0138      2.00000
     98      -4.0003      2.00000
     99      -3.9724      2.00000
    100      -3.7226      2.00000
    101      -3.6321      2.00000
    102      -3.5856      2.00000
    103      -3.5539      2.00000
    104      -3.5131      2.00000
    105      -3.4625      2.00000
    106      -3.1009      2.00000
    107      -2.9131      2.00000
    108      -2.6849      2.00000
    109      -2.6551      2.00000
    110      -2.6021      2.00000
    111      -2.3666      2.00000
    112      -2.2566      2.00000
    113      -1.9934      2.00000
    114      -1.9385      2.00000
    115      -1.9256      2.00000
    116      -1.9057      2.00000
    117      -1.5555      2.00000
    118      -1.0334      2.00000
    119      -0.0730      2.00000
    120       0.7114      0.00000
    121       2.3152      0.00000
    122       2.6123      0.00000
    123       2.7773      0.00000
    124       3.1144      0.00000
    125       3.5050      0.00000
    126       3.5113      0.00000
    127       3.6446      0.00000
    128       3.7222      0.00000
    129       3.7465      0.00000
    130       3.7780      0.00000
    131       3.9714      0.00000
    132       4.2089      0.00000
    133       4.4702      0.00000
    134       4.5193      0.00000
    135       4.6034      0.00000
    136       4.6657      0.00000
    137       4.7523      0.00000
    138       4.8126      0.00000
    139       5.0130      0.00000
    140       5.1058      0.00000
    141       5.1555      0.00000
    142       5.2658      0.00000
    143       5.3919      0.00000
    144       5.4131      0.00000
    145       5.5043      0.00000
    146       5.5310      0.00000
    147       5.6026      0.00000
    148       5.7192      0.00000
    149       5.7947      0.00000
    150       5.8170      0.00000
    151       5.9103      0.00000
    152       5.9495      0.00000
    153       5.9792      0.00000
    154       6.1151      0.00000
    155       6.1507      0.00000
    156       6.2480      0.00000
    157       6.2697      0.00000
    158       6.3656      0.00000
    159       6.4470      0.00000
    160       6.5248      0.00000
    161       6.5997      0.00000
    162       6.6981      0.00000
    163       6.7009      0.00000
    164       6.8465      0.00000
    165       6.9135      0.00000
    166       6.9634      0.00000
    167       7.0250      0.00000
    168       7.1953      0.00000
    169       7.2478      0.00000
    170       7.2945      0.00000
    171       7.3393      0.00000
    172       7.3904      0.00000
    173       7.4974      0.00000
    174       7.5366      0.00000

 k-point     9 :       0.0872    0.0696   -0.0366
  band No.  band energies     occupation 
      1     -17.9784      2.00000
      2     -17.3610      2.00000
      3     -16.9024      2.00000
      4     -16.0782      2.00000
      5     -16.0486      2.00000
      6     -15.6352      2.00000
      7     -15.5732      2.00000
      8     -15.2213      2.00000
      9     -15.2059      2.00000
     10     -15.1531      2.00000
     11     -15.1338      2.00000
     12     -15.1241      2.00000
     13     -14.8882      2.00000
     14     -14.6147      2.00000
     15     -14.1065      2.00000
     16     -13.9571      2.00000
     17     -13.5729      2.00000
     18     -13.5382      2.00000
     19     -12.9311      2.00000
     20     -12.8905      2.00000
     21     -12.7868      2.00000
     22     -12.7696      2.00000
     23     -12.6904      2.00000
     24     -12.6829      2.00000
     25     -12.6056      2.00000
     26     -12.2829      2.00000
     27     -11.3286      2.00000
     28     -11.0412      2.00000
     29     -10.9020      2.00000
     30     -10.8453      2.00000
     31     -10.7311      2.00000
     32     -10.3089      2.00000
     33     -10.2973      2.00000
     34     -10.1064      2.00000
     35     -10.0885      2.00000
     36      -9.9375      2.00000
     37      -9.9306      2.00000
     38      -9.8533      2.00000
     39      -8.7655      2.00000
     40      -8.7458      2.00000
     41      -8.6282      2.00000
     42      -8.4122      2.00000
     43      -8.3565      2.00000
     44      -7.9766      2.00000
     45      -7.9551      2.00000
     46      -7.4199      2.00000
     47      -7.2890      2.00000
     48      -7.1361      2.00000
     49      -7.0939      2.00000
     50      -7.0665      2.00000
     51      -6.9989      2.00000
     52      -6.9229      2.00000
     53      -6.8669      2.00000
     54      -6.7898      2.00000
     55      -6.6087      2.00000
     56      -6.4943      2.00000
     57      -6.4271      2.00000
     58      -6.4001      2.00000
     59      -6.3370      2.00000
     60      -6.2847      2.00000
     61      -6.1802      2.00000
     62      -6.1528      2.00000
     63      -6.1183      2.00000
     64      -6.0018      2.00000
     65      -5.9390      2.00000
     66      -5.9184      2.00000
     67      -5.8978      2.00000
     68      -5.7852      2.00000
     69      -5.7478      2.00000
     70      -5.6846      2.00000
     71      -5.6442      2.00000
     72      -5.6022      2.00000
     73      -5.5548      2.00000
     74      -5.5205      2.00000
     75      -5.4186      2.00000
     76      -5.4059      2.00000
     77      -5.3783      2.00000
     78      -5.2259      2.00000
     79      -5.1788      2.00000
     80      -5.1231      2.00000
     81      -5.0766      2.00000
     82      -5.0509      2.00000
     83      -4.7607      2.00000
     84      -4.6760      2.00000
     85      -4.5043      2.00000
     86      -4.3767      2.00000
     87      -4.3230      2.00000
     88      -4.2901      2.00000
     89      -4.2846      2.00000
     90      -4.2499      2.00000
     91      -4.2277      2.00000
     92      -4.1856      2.00000
     93      -4.1596      2.00000
     94      -4.1524      2.00000
     95      -4.0857      2.00000
     96      -4.0572      2.00000
     97      -4.0138      2.00000
     98      -4.0003      2.00000
     99      -3.9724      2.00000
    100      -3.7226      2.00000
    101      -3.6321      2.00000
    102      -3.5856      2.00000
    103      -3.5539      2.00000
    104      -3.5131      2.00000
    105      -3.4625      2.00000
    106      -3.1009      2.00000
    107      -2.9131      2.00000
    108      -2.6849      2.00000
    109      -2.6551      2.00000
    110      -2.6021      2.00000
    111      -2.3666      2.00000
    112      -2.2566      2.00000
    113      -1.9934      2.00000
    114      -1.9385      2.00000
    115      -1.9256      2.00000
    116      -1.9057      2.00000
    117      -1.5555      2.00000
    118      -1.0334      2.00000
    119      -0.0730      2.00000
    120       0.7114      0.00000
    121       2.3152      0.00000
    122       2.6123      0.00000
    123       2.7773      0.00000
    124       3.1144      0.00000
    125       3.5050      0.00000
    126       3.5113      0.00000
    127       3.6446      0.00000
    128       3.7222      0.00000
    129       3.7465      0.00000
    130       3.7780      0.00000
    131       3.9714      0.00000
    132       4.2089      0.00000
    133       4.4702      0.00000
    134       4.5193      0.00000
    135       4.6034      0.00000
    136       4.6657      0.00000
    137       4.7523      0.00000
    138       4.8126      0.00000
    139       5.0130      0.00000
    140       5.1058      0.00000
    141       5.1555      0.00000
    142       5.2658      0.00000
    143       5.3919      0.00000
    144       5.4131      0.00000
    145       5.5043      0.00000
    146       5.5310      0.00000
    147       5.6026      0.00000
    148       5.7192      0.00000
    149       5.7947      0.00000
    150       5.8170      0.00000
    151       5.9103      0.00000
    152       5.9495      0.00000
    153       5.9792      0.00000
    154       6.1151      0.00000
    155       6.1507      0.00000
    156       6.2480      0.00000
    157       6.2697      0.00000
    158       6.3656      0.00000
    159       6.4470      0.00000
    160       6.5248      0.00000
    161       6.5997      0.00000
    162       6.6981      0.00000
    163       6.7009      0.00000
    164       6.8465      0.00000
    165       6.9135      0.00000
    166       6.9634      0.00000
    167       7.0250      0.00000
    168       7.1952      0.00000
    169       7.2477      0.00000
    170       7.2944      0.00000
    171       7.3383      0.00000
    172       7.3893      0.00000
    173       7.4940      0.00000
    174       7.5391      0.00000

 k-point    10 :       0.0854   -0.0923    0.0415
  band No.  band energies     occupation 
      1     -17.9791      2.00000
      2     -17.3517      2.00000
      3     -16.9173      2.00000
      4     -16.0724      2.00000
      5     -16.0493      2.00000
      6     -15.6340      2.00000
      7     -15.5726      2.00000
      8     -15.2240      2.00000
      9     -15.2040      2.00000
     10     -15.1533      2.00000
     11     -15.1346      2.00000
     12     -15.1194      2.00000
     13     -14.8916      2.00000
     14     -14.6116      2.00000
     15     -14.1058      2.00000
     16     -13.9587      2.00000
     17     -13.5719      2.00000
     18     -13.5379      2.00000
     19     -12.9301      2.00000
     20     -12.8895      2.00000
     21     -12.7908      2.00000
     22     -12.7675      2.00000
     23     -12.6906      2.00000
     24     -12.6818      2.00000
     25     -12.6098      2.00000
     26     -12.2947      2.00000
     27     -11.3320      2.00000
     28     -11.0354      2.00000
     29     -10.8813      2.00000
     30     -10.8464      2.00000
     31     -10.7308      2.00000
     32     -10.3122      2.00000
     33     -10.2954      2.00000
     34     -10.1128      2.00000
     35     -10.0747      2.00000
     36      -9.9479      2.00000
     37      -9.9346      2.00000
     38      -9.8533      2.00000
     39      -8.7798      2.00000
     40      -8.7433      2.00000
     41      -8.6283      2.00000
     42      -8.4172      2.00000
     43      -8.3417      2.00000
     44      -7.9872      2.00000
     45      -7.9580      2.00000
     46      -7.3817      2.00000
     47      -7.2852      2.00000
     48      -7.1326      2.00000
     49      -7.1185      2.00000
     50      -7.0555      2.00000
     51      -6.9870      2.00000
     52      -6.9280      2.00000
     53      -6.8700      2.00000
     54      -6.7807      2.00000
     55      -6.6187      2.00000
     56      -6.4982      2.00000
     57      -6.4327      2.00000
     58      -6.3918      2.00000
     59      -6.3325      2.00000
     60      -6.2939      2.00000
     61      -6.1897      2.00000
     62      -6.1506      2.00000
     63      -6.1274      2.00000
     64      -6.0043      2.00000
     65      -5.9685      2.00000
     66      -5.9202      2.00000
     67      -5.9064      2.00000
     68      -5.7863      2.00000
     69      -5.7372      2.00000
     70      -5.6926      2.00000
     71      -5.6369      2.00000
     72      -5.6038      2.00000
     73      -5.5503      2.00000
     74      -5.5290      2.00000
     75      -5.4118      2.00000
     76      -5.3919      2.00000
     77      -5.3555      2.00000
     78      -5.2294      2.00000
     79      -5.1775      2.00000
     80      -5.1208      2.00000
     81      -5.0779      2.00000
     82      -5.0560      2.00000
     83      -4.7416      2.00000
     84      -4.6461      2.00000
     85      -4.5140      2.00000
     86      -4.3845      2.00000
     87      -4.3287      2.00000
     88      -4.3040      2.00000
     89      -4.2906      2.00000
     90      -4.2605      2.00000
     91      -4.2454      2.00000
     92      -4.1803      2.00000
     93      -4.1643      2.00000
     94      -4.1449      2.00000
     95      -4.0780      2.00000
     96      -4.0553      2.00000
     97      -4.0098      2.00000
     98      -3.9955      2.00000
     99      -3.9725      2.00000
    100      -3.7056      2.00000
    101      -3.6242      2.00000
    102      -3.5930      2.00000
    103      -3.5594      2.00000
    104      -3.5150      2.00000
    105      -3.4533      2.00000
    106      -3.1568      2.00000
    107      -2.8812      2.00000
    108      -2.6903      2.00000
    109      -2.6548      2.00000
    110      -2.5983      2.00000
    111      -2.4311      2.00000
    112      -2.2595      2.00000
    113      -1.9974      2.00000
    114      -1.9392      2.00000
    115      -1.9174      2.00000
    116      -1.8439      2.00000
    117      -1.5516      2.00000
    118      -1.0458      2.00000
    119      -0.0590      2.00000
    120       0.7435      0.00000
    121       2.2711      0.00000
    122       2.6310      0.00000
    123       2.7634      0.00000
    124       3.1179      0.00000
    125       3.4930      0.00000
    126       3.5684      0.00000
    127       3.6078      0.00000
    128       3.6784      0.00000
    129       3.7364      0.00000
    130       3.7989      0.00000
    131       3.9889      0.00000
    132       4.2652      0.00000
    133       4.4296      0.00000
    134       4.5115      0.00000
    135       4.5751      0.00000
    136       4.6961      0.00000
    137       4.7394      0.00000
    138       4.9544      0.00000
    139       4.9902      0.00000
    140       5.0393      0.00000
    141       5.1742      0.00000
    142       5.2410      0.00000
    143       5.3608      0.00000
    144       5.4525      0.00000
    145       5.4931      0.00000
    146       5.5210      0.00000
    147       5.6227      0.00000
    148       5.6734      0.00000
    149       5.7439      0.00000
    150       5.8396      0.00000
    151       5.8768      0.00000
    152       5.9770      0.00000
    153       6.0510      0.00000
    154       6.0689      0.00000
    155       6.1845      0.00000
    156       6.2277      0.00000
    157       6.2444      0.00000
    158       6.3654      0.00000
    159       6.4658      0.00000
    160       6.5012      0.00000
    161       6.5810      0.00000
    162       6.6442      0.00000
    163       6.7871      0.00000
    164       6.8402      0.00000
    165       6.9486      0.00000
    166       6.9809      0.00000
    167       7.0012      0.00000
    168       7.1915      0.00000
    169       7.2577      0.00000
    170       7.2812      0.00000
    171       7.3337      0.00000
    172       7.3865      0.00000
    173       7.4459      0.00000
    174       7.5754      0.00000

 k-point    11 :      -0.0854    0.0923   -0.0415
  band No.  band energies     occupation 
      1     -17.9791      2.00000
      2     -17.3517      2.00000
      3     -16.9173      2.00000
      4     -16.0724      2.00000
      5     -16.0493      2.00000
      6     -15.6340      2.00000
      7     -15.5726      2.00000
      8     -15.2240      2.00000
      9     -15.2040      2.00000
     10     -15.1533      2.00000
     11     -15.1346      2.00000
     12     -15.1194      2.00000
     13     -14.8916      2.00000
     14     -14.6116      2.00000
     15     -14.1058      2.00000
     16     -13.9587      2.00000
     17     -13.5719      2.00000
     18     -13.5379      2.00000
     19     -12.9301      2.00000
     20     -12.8895      2.00000
     21     -12.7908      2.00000
     22     -12.7675      2.00000
     23     -12.6906      2.00000
     24     -12.6818      2.00000
     25     -12.6098      2.00000
     26     -12.2947      2.00000
     27     -11.3320      2.00000
     28     -11.0354      2.00000
     29     -10.8813      2.00000
     30     -10.8464      2.00000
     31     -10.7308      2.00000
     32     -10.3122      2.00000
     33     -10.2954      2.00000
     34     -10.1128      2.00000
     35     -10.0747      2.00000
     36      -9.9479      2.00000
     37      -9.9346      2.00000
     38      -9.8533      2.00000
     39      -8.7798      2.00000
     40      -8.7433      2.00000
     41      -8.6283      2.00000
     42      -8.4172      2.00000
     43      -8.3417      2.00000
     44      -7.9872      2.00000
     45      -7.9580      2.00000
     46      -7.3817      2.00000
     47      -7.2852      2.00000
     48      -7.1326      2.00000
     49      -7.1185      2.00000
     50      -7.0555      2.00000
     51      -6.9870      2.00000
     52      -6.9280      2.00000
     53      -6.8700      2.00000
     54      -6.7807      2.00000
     55      -6.6187      2.00000
     56      -6.4982      2.00000
     57      -6.4327      2.00000
     58      -6.3918      2.00000
     59      -6.3325      2.00000
     60      -6.2939      2.00000
     61      -6.1897      2.00000
     62      -6.1506      2.00000
     63      -6.1274      2.00000
     64      -6.0043      2.00000
     65      -5.9685      2.00000
     66      -5.9202      2.00000
     67      -5.9064      2.00000
     68      -5.7863      2.00000
     69      -5.7372      2.00000
     70      -5.6926      2.00000
     71      -5.6369      2.00000
     72      -5.6038      2.00000
     73      -5.5503      2.00000
     74      -5.5290      2.00000
     75      -5.4118      2.00000
     76      -5.3919      2.00000
     77      -5.3555      2.00000
     78      -5.2294      2.00000
     79      -5.1775      2.00000
     80      -5.1208      2.00000
     81      -5.0779      2.00000
     82      -5.0560      2.00000
     83      -4.7416      2.00000
     84      -4.6461      2.00000
     85      -4.5140      2.00000
     86      -4.3845      2.00000
     87      -4.3287      2.00000
     88      -4.3040      2.00000
     89      -4.2906      2.00000
     90      -4.2605      2.00000
     91      -4.2454      2.00000
     92      -4.1803      2.00000
     93      -4.1643      2.00000
     94      -4.1449      2.00000
     95      -4.0780      2.00000
     96      -4.0553      2.00000
     97      -4.0098      2.00000
     98      -3.9955      2.00000
     99      -3.9725      2.00000
    100      -3.7056      2.00000
    101      -3.6242      2.00000
    102      -3.5930      2.00000
    103      -3.5594      2.00000
    104      -3.5150      2.00000
    105      -3.4533      2.00000
    106      -3.1568      2.00000
    107      -2.8812      2.00000
    108      -2.6903      2.00000
    109      -2.6548      2.00000
    110      -2.5983      2.00000
    111      -2.4311      2.00000
    112      -2.2595      2.00000
    113      -1.9974      2.00000
    114      -1.9392      2.00000
    115      -1.9174      2.00000
    116      -1.8439      2.00000
    117      -1.5516      2.00000
    118      -1.0458      2.00000
    119      -0.0590      2.00000
    120       0.7435      0.00000
    121       2.2711      0.00000
    122       2.6310      0.00000
    123       2.7634      0.00000
    124       3.1179      0.00000
    125       3.4930      0.00000
    126       3.5684      0.00000
    127       3.6078      0.00000
    128       3.6784      0.00000
    129       3.7364      0.00000
    130       3.7989      0.00000
    131       3.9889      0.00000
    132       4.2652      0.00000
    133       4.4296      0.00000
    134       4.5115      0.00000
    135       4.5751      0.00000
    136       4.6961      0.00000
    137       4.7394      0.00000
    138       4.9544      0.00000
    139       4.9902      0.00000
    140       5.0393      0.00000
    141       5.1742      0.00000
    142       5.2410      0.00000
    143       5.3608      0.00000
    144       5.4525      0.00000
    145       5.4931      0.00000
    146       5.5210      0.00000
    147       5.6227      0.00000
    148       5.6734      0.00000
    149       5.7439      0.00000
    150       5.8396      0.00000
    151       5.8768      0.00000
    152       5.9770      0.00000
    153       6.0510      0.00000
    154       6.0689      0.00000
    155       6.1845      0.00000
    156       6.2277      0.00000
    157       6.2444      0.00000
    158       6.3654      0.00000
    159       6.4658      0.00000
    160       6.5012      0.00000
    161       6.5810      0.00000
    162       6.6442      0.00000
    163       6.7871      0.00000
    164       6.8402      0.00000
    165       6.9486      0.00000
    166       6.9809      0.00000
    167       7.0012      0.00000
    168       7.1917      0.00000
    169       7.2581      0.00000
    170       7.2812      0.00000
    171       7.3336      0.00000
    172       7.3866      0.00000
    173       7.4477      0.00000
    174       7.5714      0.00000

 k-point    12 :      -0.0866    0.0124   -0.1773
  band No.  band energies     occupation 
      1     -17.9818      2.00000
      2     -17.3491      2.00000
      3     -16.9118      2.00000
      4     -16.0773      2.00000
      5     -16.0497      2.00000
      6     -15.6359      2.00000
      7     -15.5757      2.00000
      8     -15.2188      2.00000
      9     -15.2044      2.00000
     10     -15.1549      2.00000
     11     -15.1355      2.00000
     12     -15.1210      2.00000
     13     -14.8875      2.00000
     14     -14.6135      2.00000
     15     -14.1065      2.00000
     16     -13.9542      2.00000
     17     -13.5741      2.00000
     18     -13.5384      2.00000
     19     -12.9327      2.00000
     20     -12.8900      2.00000
     21     -12.7882      2.00000
     22     -12.7672      2.00000
     23     -12.6902      2.00000
     24     -12.6812      2.00000
     25     -12.6093      2.00000
     26     -12.2919      2.00000
     27     -11.3297      2.00000
     28     -11.0341      2.00000
     29     -10.8816      2.00000
     30     -10.8544      2.00000
     31     -10.7203      2.00000
     32     -10.3126      2.00000
     33     -10.2973      2.00000
     34     -10.1172      2.00000
     35     -10.0838      2.00000
     36      -9.9529      2.00000
     37      -9.9248      2.00000
     38      -9.8524      2.00000
     39      -8.7814      2.00000
     40      -8.7461      2.00000
     41      -8.6287      2.00000
     42      -8.4193      2.00000
     43      -8.3408      2.00000
     44      -7.9863      2.00000
     45      -7.9656      2.00000
     46      -7.3761      2.00000
     47      -7.2796      2.00000
     48      -7.1432      2.00000
     49      -7.0959      2.00000
     50      -7.0729      2.00000
     51      -6.9984      2.00000
     52      -6.9191      2.00000
     53      -6.8769      2.00000
     54      -6.7806      2.00000
     55      -6.6100      2.00000
     56      -6.5000      2.00000
     57      -6.4223      2.00000
     58      -6.3942      2.00000
     59      -6.3328      2.00000
     60      -6.2952      2.00000
     61      -6.1908      2.00000
     62      -6.1494      2.00000
     63      -6.1262      2.00000
     64      -5.9829      2.00000
     65      -5.9239      2.00000
     66      -5.9209      2.00000
     67      -5.8985      2.00000
     68      -5.8036      2.00000
     69      -5.7793      2.00000
     70      -5.7342      2.00000
     71      -5.6376      2.00000
     72      -5.5988      2.00000
     73      -5.5543      2.00000
     74      -5.5176      2.00000
     75      -5.4144      2.00000
     76      -5.3863      2.00000
     77      -5.3547      2.00000
     78      -5.2256      2.00000
     79      -5.1818      2.00000
     80      -5.1175      2.00000
     81      -5.0723      2.00000
     82      -5.0590      2.00000
     83      -4.7386      2.00000
     84      -4.6568      2.00000
     85      -4.5126      2.00000
     86      -4.3817      2.00000
     87      -4.3202      2.00000
     88      -4.3041      2.00000
     89      -4.2778      2.00000
     90      -4.2677      2.00000
     91      -4.2371      2.00000
     92      -4.1705      2.00000
     93      -4.1583      2.00000
     94      -4.1434      2.00000
     95      -4.1000      2.00000
     96      -4.0557      2.00000
     97      -4.0108      2.00000
     98      -4.0015      2.00000
     99      -3.9749      2.00000
    100      -3.7022      2.00000
    101      -3.6234      2.00000
    102      -3.5789      2.00000
    103      -3.5559      2.00000
    104      -3.5060      2.00000
    105      -3.4598      2.00000
    106      -3.1314      2.00000
    107      -2.8975      2.00000
    108      -2.6880      2.00000
    109      -2.6582      2.00000
    110      -2.6035      2.00000
    111      -2.3990      2.00000
    112      -2.2511      2.00000
    113      -2.0079      2.00000
    114      -1.9434      2.00000
    115      -1.9328      2.00000
    116      -1.8770      2.00000
    117      -1.5517      2.00000
    118      -1.0298      2.00000
    119      -0.0566      2.00000
    120       0.7054      0.00000
    121       2.2990      0.00000
    122       2.6203      0.00000
    123       2.7638      0.00000
    124       3.1040      0.00000
    125       3.4874      0.00000
    126       3.5439      0.00000
    127       3.6266      0.00000
    128       3.6844      0.00000
    129       3.7382      0.00000
    130       3.7855      0.00000
    131       3.9981      0.00000
    132       4.2316      0.00000
    133       4.4358      0.00000
    134       4.4848      0.00000
    135       4.5769      0.00000
    136       4.7229      0.00000
    137       4.7976      0.00000
    138       4.8392      0.00000
    139       5.0524      0.00000
    140       5.0897      0.00000
    141       5.1608      0.00000
    142       5.2333      0.00000
    143       5.3725      0.00000
    144       5.4298      0.00000
    145       5.4864      0.00000
    146       5.5383      0.00000
    147       5.6219      0.00000
    148       5.6995      0.00000
    149       5.7979      0.00000
    150       5.8497      0.00000
    151       5.8764      0.00000
    152       5.9570      0.00000
    153       6.0002      0.00000
    154       6.1530      0.00000
    155       6.1889      0.00000
    156       6.2159      0.00000
    157       6.3024      0.00000
    158       6.3242      0.00000
    159       6.3692      0.00000
    160       6.4757      0.00000
    161       6.5743      0.00000
    162       6.6802      0.00000
    163       6.7368      0.00000
    164       6.8896      0.00000
    165       6.9068      0.00000
    166       6.9551      0.00000
    167       7.0294      0.00000
    168       7.1584      0.00000
    169       7.2194      0.00000
    170       7.3139      0.00000
    171       7.3407      0.00000
    172       7.3725      0.00000
    173       7.4244      0.00000
    174       7.5864      0.00000

 k-point    13 :       0.0866   -0.0124    0.1773
  band No.  band energies     occupation 
      1     -17.9818      2.00000
      2     -17.3491      2.00000
      3     -16.9118      2.00000
      4     -16.0773      2.00000
      5     -16.0497      2.00000
      6     -15.6359      2.00000
      7     -15.5757      2.00000
      8     -15.2188      2.00000
      9     -15.2044      2.00000
     10     -15.1549      2.00000
     11     -15.1355      2.00000
     12     -15.1210      2.00000
     13     -14.8875      2.00000
     14     -14.6135      2.00000
     15     -14.1065      2.00000
     16     -13.9542      2.00000
     17     -13.5741      2.00000
     18     -13.5384      2.00000
     19     -12.9327      2.00000
     20     -12.8900      2.00000
     21     -12.7882      2.00000
     22     -12.7672      2.00000
     23     -12.6902      2.00000
     24     -12.6812      2.00000
     25     -12.6093      2.00000
     26     -12.2919      2.00000
     27     -11.3297      2.00000
     28     -11.0341      2.00000
     29     -10.8816      2.00000
     30     -10.8544      2.00000
     31     -10.7203      2.00000
     32     -10.3126      2.00000
     33     -10.2973      2.00000
     34     -10.1172      2.00000
     35     -10.0838      2.00000
     36      -9.9529      2.00000
     37      -9.9248      2.00000
     38      -9.8524      2.00000
     39      -8.7814      2.00000
     40      -8.7461      2.00000
     41      -8.6287      2.00000
     42      -8.4193      2.00000
     43      -8.3408      2.00000
     44      -7.9863      2.00000
     45      -7.9656      2.00000
     46      -7.3761      2.00000
     47      -7.2796      2.00000
     48      -7.1432      2.00000
     49      -7.0959      2.00000
     50      -7.0729      2.00000
     51      -6.9984      2.00000
     52      -6.9191      2.00000
     53      -6.8769      2.00000
     54      -6.7806      2.00000
     55      -6.6100      2.00000
     56      -6.5000      2.00000
     57      -6.4223      2.00000
     58      -6.3942      2.00000
     59      -6.3328      2.00000
     60      -6.2952      2.00000
     61      -6.1908      2.00000
     62      -6.1494      2.00000
     63      -6.1262      2.00000
     64      -5.9829      2.00000
     65      -5.9239      2.00000
     66      -5.9209      2.00000
     67      -5.8985      2.00000
     68      -5.8036      2.00000
     69      -5.7793      2.00000
     70      -5.7342      2.00000
     71      -5.6376      2.00000
     72      -5.5988      2.00000
     73      -5.5543      2.00000
     74      -5.5176      2.00000
     75      -5.4144      2.00000
     76      -5.3863      2.00000
     77      -5.3547      2.00000
     78      -5.2256      2.00000
     79      -5.1818      2.00000
     80      -5.1175      2.00000
     81      -5.0723      2.00000
     82      -5.0590      2.00000
     83      -4.7386      2.00000
     84      -4.6568      2.00000
     85      -4.5126      2.00000
     86      -4.3817      2.00000
     87      -4.3202      2.00000
     88      -4.3041      2.00000
     89      -4.2778      2.00000
     90      -4.2677      2.00000
     91      -4.2371      2.00000
     92      -4.1705      2.00000
     93      -4.1583      2.00000
     94      -4.1434      2.00000
     95      -4.1000      2.00000
     96      -4.0557      2.00000
     97      -4.0108      2.00000
     98      -4.0015      2.00000
     99      -3.9749      2.00000
    100      -3.7022      2.00000
    101      -3.6234      2.00000
    102      -3.5789      2.00000
    103      -3.5559      2.00000
    104      -3.5060      2.00000
    105      -3.4598      2.00000
    106      -3.1314      2.00000
    107      -2.8975      2.00000
    108      -2.6880      2.00000
    109      -2.6582      2.00000
    110      -2.6035      2.00000
    111      -2.3990      2.00000
    112      -2.2511      2.00000
    113      -2.0079      2.00000
    114      -1.9434      2.00000
    115      -1.9328      2.00000
    116      -1.8770      2.00000
    117      -1.5517      2.00000
    118      -1.0298      2.00000
    119      -0.0566      2.00000
    120       0.7054      0.00000
    121       2.2990      0.00000
    122       2.6203      0.00000
    123       2.7638      0.00000
    124       3.1040      0.00000
    125       3.4874      0.00000
    126       3.5439      0.00000
    127       3.6266      0.00000
    128       3.6844      0.00000
    129       3.7382      0.00000
    130       3.7855      0.00000
    131       3.9981      0.00000
    132       4.2316      0.00000
    133       4.4358      0.00000
    134       4.4848      0.00000
    135       4.5769      0.00000
    136       4.7229      0.00000
    137       4.7976      0.00000
    138       4.8392      0.00000
    139       5.0524      0.00000
    140       5.0897      0.00000
    141       5.1608      0.00000
    142       5.2333      0.00000
    143       5.3725      0.00000
    144       5.4298      0.00000
    145       5.4864      0.00000
    146       5.5383      0.00000
    147       5.6219      0.00000
    148       5.6995      0.00000
    149       5.7979      0.00000
    150       5.8497      0.00000
    151       5.8764      0.00000
    152       5.9570      0.00000
    153       6.0002      0.00000
    154       6.1530      0.00000
    155       6.1889      0.00000
    156       6.2159      0.00000
    157       6.3024      0.00000
    158       6.3242      0.00000
    159       6.3692      0.00000
    160       6.4757      0.00000
    161       6.5743      0.00000
    162       6.6802      0.00000
    163       6.7368      0.00000
    164       6.8896      0.00000
    165       6.9068      0.00000
    166       6.9551      0.00000
    167       7.0294      0.00000
    168       7.1583      0.00000
    169       7.2193      0.00000
    170       7.3136      0.00000
    171       7.3394      0.00000
    172       7.3708      0.00000
    173       7.4231      0.00000
    174       7.5869      0.00000

 k-point    14 :       0.0860   -0.0103   -0.1724
  band No.  band energies     occupation 
      1     -17.9818      2.00000
      2     -17.3492      2.00000
      3     -16.9117      2.00000
      4     -16.0774      2.00000
      5     -16.0497      2.00000
      6     -15.6346      2.00000
      7     -15.5772      2.00000
      8     -15.2189      2.00000
      9     -15.2045      2.00000
     10     -15.1547      2.00000
     11     -15.1343      2.00000
     12     -15.1221      2.00000
     13     -14.8875      2.00000
     14     -14.6135      2.00000
     15     -14.1059      2.00000
     16     -13.9542      2.00000
     17     -13.5741      2.00000
     18     -13.5396      2.00000
     19     -12.9315      2.00000
     20     -12.8906      2.00000
     21     -12.7880      2.00000
     22     -12.7668      2.00000
     23     -12.6901      2.00000
     24     -12.6814      2.00000
     25     -12.6098      2.00000
     26     -12.2918      2.00000
     27     -11.3271      2.00000
     28     -11.0342      2.00000
     29     -10.8850      2.00000
     30     -10.8677      2.00000
     31     -10.7058      2.00000
     32     -10.3125      2.00000
     33     -10.2984      2.00000
     34     -10.1110      2.00000
     35     -10.0887      2.00000
     36      -9.9533      2.00000
     37      -9.9225      2.00000
     38      -9.8549      2.00000
     39      -8.7804      2.00000
     40      -8.7526      2.00000
     41      -8.6289      2.00000
     42      -8.4101      2.00000
     43      -8.3405      2.00000
     44      -7.9946      2.00000
     45      -7.9627      2.00000
     46      -7.3767      2.00000
     47      -7.2759      2.00000
     48      -7.1451      2.00000
     49      -7.0934      2.00000
     50      -7.0778      2.00000
     51      -6.9918      2.00000
     52      -6.9330      2.00000
     53      -6.8662      2.00000
     54      -6.7799      2.00000
     55      -6.6166      2.00000
     56      -6.4941      2.00000
     57      -6.4303      2.00000
     58      -6.3949      2.00000
     59      -6.3235      2.00000
     60      -6.2928      2.00000
     61      -6.1928      2.00000
     62      -6.1543      2.00000
     63      -6.1204      2.00000
     64      -5.9806      2.00000
     65      -5.9292      2.00000
     66      -5.9169      2.00000
     67      -5.8989      2.00000
     68      -5.8051      2.00000
     69      -5.7793      2.00000
     70      -5.7361      2.00000
     71      -5.6365      2.00000
     72      -5.6005      2.00000
     73      -5.5511      2.00000
     74      -5.5245      2.00000
     75      -5.4134      2.00000
     76      -5.3863      2.00000
     77      -5.3557      2.00000
     78      -5.2258      2.00000
     79      -5.1779      2.00000
     80      -5.1182      2.00000
     81      -5.0741      2.00000
     82      -5.0573      2.00000
     83      -4.7399      2.00000
     84      -4.6568      2.00000
     85      -4.5001      2.00000
     86      -4.3973      2.00000
     87      -4.3235      2.00000
     88      -4.2990      2.00000
     89      -4.2778      2.00000
     90      -4.2561      2.00000
     91      -4.2407      2.00000
     92      -4.1749      2.00000
     93      -4.1619      2.00000
     94      -4.1352      2.00000
     95      -4.0989      2.00000
     96      -4.0638      2.00000
     97      -4.0095      2.00000
     98      -3.9950      2.00000
     99      -3.9805      2.00000
    100      -3.7032      2.00000
    101      -3.6142      2.00000
    102      -3.5918      2.00000
    103      -3.5517      2.00000
    104      -3.5055      2.00000
    105      -3.4603      2.00000
    106      -3.1307      2.00000
    107      -2.8974      2.00000
    108      -2.6898      2.00000
    109      -2.6603      2.00000
    110      -2.5999      2.00000
    111      -2.3966      2.00000
    112      -2.2547      2.00000
    113      -2.0066      2.00000
    114      -1.9490      2.00000
    115      -1.9238      2.00000
    116      -1.8788      2.00000
    117      -1.5535      2.00000
    118      -1.0296      2.00000
    119      -0.0568      2.00000
    120       0.7052      0.00000
    121       2.2993      0.00000
    122       2.6192      0.00000
    123       2.7638      0.00000
    124       3.1053      0.00000
    125       3.5031      0.00000
    126       3.5312      0.00000
    127       3.6277      0.00000
    128       3.6717      0.00000
    129       3.7418      0.00000
    130       3.8222      0.00000
    131       3.9593      0.00000
    132       4.2201      0.00000
    133       4.4309      0.00000
    134       4.5337      0.00000
    135       4.5587      0.00000
    136       4.7031      0.00000
    137       4.7747      0.00000
    138       4.9444      0.00000
    139       4.9749      0.00000
    140       5.0896      0.00000
    141       5.1442      0.00000
    142       5.2559      0.00000
    143       5.3773      0.00000
    144       5.4693      0.00000
    145       5.4941      0.00000
    146       5.5129      0.00000
    147       5.6157      0.00000
    148       5.6542      0.00000
    149       5.7857      0.00000
    150       5.8425      0.00000
    151       5.8822      0.00000
    152       5.9689      0.00000
    153       6.0437      0.00000
    154       6.0839      0.00000
    155       6.1504      0.00000
    156       6.2308      0.00000
    157       6.2799      0.00000
    158       6.3436      0.00000
    159       6.4471      0.00000
    160       6.5052      0.00000
    161       6.6263      0.00000
    162       6.6751      0.00000
    163       6.7389      0.00000
    164       6.8194      0.00000
    165       6.8916      0.00000
    166       6.9849      0.00000
    167       7.0037      0.00000
    168       7.2117      0.00000
    169       7.2291      0.00000
    170       7.2690      0.00000
    171       7.3267      0.00000
    172       7.4518      0.00000
    173       7.5190      0.00000
    174       7.5913      0.00000

 k-point    15 :      -0.0860    0.0103    0.1724
  band No.  band energies     occupation 
      1     -17.9818      2.00000
      2     -17.3492      2.00000
      3     -16.9117      2.00000
      4     -16.0774      2.00000
      5     -16.0497      2.00000
      6     -15.6346      2.00000
      7     -15.5772      2.00000
      8     -15.2189      2.00000
      9     -15.2045      2.00000
     10     -15.1547      2.00000
     11     -15.1343      2.00000
     12     -15.1221      2.00000
     13     -14.8875      2.00000
     14     -14.6135      2.00000
     15     -14.1059      2.00000
     16     -13.9542      2.00000
     17     -13.5741      2.00000
     18     -13.5396      2.00000
     19     -12.9315      2.00000
     20     -12.8906      2.00000
     21     -12.7880      2.00000
     22     -12.7668      2.00000
     23     -12.6901      2.00000
     24     -12.6814      2.00000
     25     -12.6098      2.00000
     26     -12.2918      2.00000
     27     -11.3271      2.00000
     28     -11.0342      2.00000
     29     -10.8850      2.00000
     30     -10.8677      2.00000
     31     -10.7058      2.00000
     32     -10.3125      2.00000
     33     -10.2984      2.00000
     34     -10.1110      2.00000
     35     -10.0887      2.00000
     36      -9.9533      2.00000
     37      -9.9225      2.00000
     38      -9.8549      2.00000
     39      -8.7804      2.00000
     40      -8.7526      2.00000
     41      -8.6289      2.00000
     42      -8.4101      2.00000
     43      -8.3405      2.00000
     44      -7.9946      2.00000
     45      -7.9627      2.00000
     46      -7.3767      2.00000
     47      -7.2759      2.00000
     48      -7.1451      2.00000
     49      -7.0934      2.00000
     50      -7.0778      2.00000
     51      -6.9918      2.00000
     52      -6.9330      2.00000
     53      -6.8662      2.00000
     54      -6.7799      2.00000
     55      -6.6166      2.00000
     56      -6.4941      2.00000
     57      -6.4303      2.00000
     58      -6.3949      2.00000
     59      -6.3235      2.00000
     60      -6.2928      2.00000
     61      -6.1928      2.00000
     62      -6.1543      2.00000
     63      -6.1204      2.00000
     64      -5.9806      2.00000
     65      -5.9292      2.00000
     66      -5.9169      2.00000
     67      -5.8989      2.00000
     68      -5.8051      2.00000
     69      -5.7793      2.00000
     70      -5.7361      2.00000
     71      -5.6365      2.00000
     72      -5.6005      2.00000
     73      -5.5511      2.00000
     74      -5.5245      2.00000
     75      -5.4134      2.00000
     76      -5.3863      2.00000
     77      -5.3557      2.00000
     78      -5.2258      2.00000
     79      -5.1779      2.00000
     80      -5.1182      2.00000
     81      -5.0741      2.00000
     82      -5.0573      2.00000
     83      -4.7399      2.00000
     84      -4.6568      2.00000
     85      -4.5001      2.00000
     86      -4.3973      2.00000
     87      -4.3235      2.00000
     88      -4.2990      2.00000
     89      -4.2778      2.00000
     90      -4.2561      2.00000
     91      -4.2407      2.00000
     92      -4.1749      2.00000
     93      -4.1619      2.00000
     94      -4.1352      2.00000
     95      -4.0989      2.00000
     96      -4.0638      2.00000
     97      -4.0095      2.00000
     98      -3.9950      2.00000
     99      -3.9805      2.00000
    100      -3.7032      2.00000
    101      -3.6142      2.00000
    102      -3.5918      2.00000
    103      -3.5517      2.00000
    104      -3.5055      2.00000
    105      -3.4603      2.00000
    106      -3.1307      2.00000
    107      -2.8974      2.00000
    108      -2.6898      2.00000
    109      -2.6603      2.00000
    110      -2.5999      2.00000
    111      -2.3966      2.00000
    112      -2.2547      2.00000
    113      -2.0066      2.00000
    114      -1.9490      2.00000
    115      -1.9238      2.00000
    116      -1.8788      2.00000
    117      -1.5535      2.00000
    118      -1.0296      2.00000
    119      -0.0568      2.00000
    120       0.7052      0.00000
    121       2.2993      0.00000
    122       2.6192      0.00000
    123       2.7638      0.00000
    124       3.1053      0.00000
    125       3.5031      0.00000
    126       3.5312      0.00000
    127       3.6277      0.00000
    128       3.6717      0.00000
    129       3.7418      0.00000
    130       3.8222      0.00000
    131       3.9593      0.00000
    132       4.2201      0.00000
    133       4.4309      0.00000
    134       4.5337      0.00000
    135       4.5587      0.00000
    136       4.7031      0.00000
    137       4.7747      0.00000
    138       4.9444      0.00000
    139       4.9749      0.00000
    140       5.0896      0.00000
    141       5.1442      0.00000
    142       5.2559      0.00000
    143       5.3773      0.00000
    144       5.4693      0.00000
    145       5.4941      0.00000
    146       5.5129      0.00000
    147       5.6157      0.00000
    148       5.6542      0.00000
    149       5.7857      0.00000
    150       5.8425      0.00000
    151       5.8822      0.00000
    152       5.9689      0.00000
    153       6.0437      0.00000
    154       6.0839      0.00000
    155       6.1504      0.00000
    156       6.2308      0.00000
    157       6.2799      0.00000
    158       6.3436      0.00000
    159       6.4471      0.00000
    160       6.5052      0.00000
    161       6.6263      0.00000
    162       6.6751      0.00000
    163       6.7389      0.00000
    164       6.8194      0.00000
    165       6.8916      0.00000
    166       6.9849      0.00000
    167       7.0038      0.00000
    168       7.2116      0.00000
    169       7.2287      0.00000
    170       7.2695      0.00000
    171       7.3280      0.00000
    172       7.4522      0.00000
    173       7.5328      0.00000
    174       7.6063      0.00000

 k-point    16 :      -0.0012   -0.0800   -0.1358
  band No.  band energies     occupation 
      1     -17.9795      2.00000
      2     -17.3537      2.00000
      3     -16.9122      2.00000
      4     -16.0748      2.00000
      5     -16.0496      2.00000
      6     -15.6341      2.00000
      7     -15.5753      2.00000
      8     -15.2226      2.00000
      9     -15.2030      2.00000
     10     -15.1524      2.00000
     11     -15.1351      2.00000
     12     -15.1200      2.00000
     13     -14.8902      2.00000
     14     -14.6127      2.00000
     15     -14.1054      2.00000
     16     -13.9589      2.00000
     17     -13.5726      2.00000
     18     -13.5386      2.00000
     19     -12.9202      2.00000
     20     -12.9006      2.00000
     21     -12.7884      2.00000
     22     -12.7688      2.00000
     23     -12.6906      2.00000
     24     -12.6820      2.00000
     25     -12.6082      2.00000
     26     -12.2899      2.00000
     27     -11.3282      2.00000
     28     -11.0374      2.00000
     29     -10.8895      2.00000
     30     -10.8646      2.00000
     31     -10.7151      2.00000
     32     -10.3076      2.00000
     33     -10.2997      2.00000
     34     -10.0994      2.00000
     35     -10.0921      2.00000
     36      -9.9528      2.00000
     37      -9.9192      2.00000
     38      -9.8596      2.00000
     39      -8.7726      2.00000
     40      -8.7461      2.00000
     41      -8.6285      2.00000
     42      -8.4085      2.00000
     43      -8.3480      2.00000
     44      -7.9870      2.00000
     45      -7.9581      2.00000
     46      -7.3978      2.00000
     47      -7.2794      2.00000
     48      -7.1353      2.00000
     49      -7.0963      2.00000
     50      -7.0619      2.00000
     51      -7.0016      2.00000
     52      -6.9299      2.00000
     53      -6.8720      2.00000
     54      -6.7849      2.00000
     55      -6.6097      2.00000
     56      -6.4958      2.00000
     57      -6.4501      2.00000
     58      -6.3890      2.00000
     59      -6.3366      2.00000
     60      -6.2902      2.00000
     61      -6.1795      2.00000
     62      -6.1494      2.00000
     63      -6.1193      2.00000
     64      -6.0060      2.00000
     65      -5.9658      2.00000
     66      -5.9217      2.00000
     67      -5.8914      2.00000
     68      -5.7932      2.00000
     69      -5.7458      2.00000
     70      -5.6975      2.00000
     71      -5.6372      2.00000
     72      -5.5996      2.00000
     73      -5.5569      2.00000
     74      -5.5179      2.00000
     75      -5.4109      2.00000
     76      -5.3996      2.00000
     77      -5.3640      2.00000
     78      -5.2276      2.00000
     79      -5.1809      2.00000
     80      -5.1196      2.00000
     81      -5.0751      2.00000
     82      -5.0559      2.00000
     83      -4.7499      2.00000
     84      -4.6329      2.00000
     85      -4.5051      2.00000
     86      -4.3860      2.00000
     87      -4.3213      2.00000
     88      -4.3032      2.00000
     89      -4.2785      2.00000
     90      -4.2610      2.00000
     91      -4.2338      2.00000
     92      -4.1750      2.00000
     93      -4.1724      2.00000
     94      -4.1510      2.00000
     95      -4.0836      2.00000
     96      -4.0511      2.00000
     97      -4.0166      2.00000
     98      -3.9983      2.00000
     99      -3.9697      2.00000
    100      -3.7123      2.00000
    101      -3.6186      2.00000
    102      -3.5986      2.00000
    103      -3.5636      2.00000
    104      -3.5169      2.00000
    105      -3.4509      2.00000
    106      -3.1363      2.00000
    107      -2.8909      2.00000
    108      -2.6887      2.00000
    109      -2.6555      2.00000
    110      -2.5982      2.00000
    111      -2.4067      2.00000
    112      -2.2586      2.00000
    113      -1.9949      2.00000
    114      -1.9491      2.00000
    115      -1.9178      2.00000
    116      -1.8810      2.00000
    117      -1.5543      2.00000
    118      -1.0367      2.00000
    119      -0.0630      2.00000
    120       0.7359      0.00000
    121       2.2810      0.00000
    122       2.6210      0.00000
    123       2.7679      0.00000
    124       3.1118      0.00000
    125       3.5097      0.00000
    126       3.5306      0.00000
    127       3.6318      0.00000
    128       3.6749      0.00000
    129       3.7493      0.00000
    130       3.7992      0.00000
    131       3.9748      0.00000
    132       4.3110      0.00000
    133       4.4145      0.00000
    134       4.4530      0.00000
    135       4.5780      0.00000
    136       4.6847      0.00000
    137       4.7271      0.00000
    138       4.9527      0.00000
    139       5.0192      0.00000
    140       5.0591      0.00000
    141       5.1805      0.00000
    142       5.2894      0.00000
    143       5.3497      0.00000
    144       5.4342      0.00000
    145       5.5031      0.00000
    146       5.5264      0.00000
    147       5.6139      0.00000
    148       5.6677      0.00000
    149       5.7345      0.00000
    150       5.8037      0.00000
    151       5.8850      0.00000
    152       5.9508      0.00000
    153       6.0486      0.00000
    154       6.0902      0.00000
    155       6.1653      0.00000
    156       6.2439      0.00000
    157       6.3188      0.00000
    158       6.3477      0.00000
    159       6.4466      0.00000
    160       6.4957      0.00000
    161       6.5964      0.00000
    162       6.6510      0.00000
    163       6.7726      0.00000
    164       6.8231      0.00000
    165       6.9250      0.00000
    166       6.9640      0.00000
    167       7.0439      0.00000
    168       7.2013      0.00000
    169       7.2385      0.00000
    170       7.2822      0.00000
    171       7.3354      0.00000
    172       7.3831      0.00000
    173       7.4452      0.00000
    174       7.4918      0.00000

 k-point    17 :       0.0012    0.0800    0.1358
  band No.  band energies     occupation 
      1     -17.9795      2.00000
      2     -17.3537      2.00000
      3     -16.9122      2.00000
      4     -16.0748      2.00000
      5     -16.0496      2.00000
      6     -15.6341      2.00000
      7     -15.5753      2.00000
      8     -15.2226      2.00000
      9     -15.2030      2.00000
     10     -15.1524      2.00000
     11     -15.1351      2.00000
     12     -15.1200      2.00000
     13     -14.8902      2.00000
     14     -14.6127      2.00000
     15     -14.1054      2.00000
     16     -13.9589      2.00000
     17     -13.5726      2.00000
     18     -13.5386      2.00000
     19     -12.9202      2.00000
     20     -12.9006      2.00000
     21     -12.7884      2.00000
     22     -12.7688      2.00000
     23     -12.6906      2.00000
     24     -12.6820      2.00000
     25     -12.6082      2.00000
     26     -12.2899      2.00000
     27     -11.3282      2.00000
     28     -11.0374      2.00000
     29     -10.8895      2.00000
     30     -10.8646      2.00000
     31     -10.7151      2.00000
     32     -10.3076      2.00000
     33     -10.2997      2.00000
     34     -10.0994      2.00000
     35     -10.0921      2.00000
     36      -9.9528      2.00000
     37      -9.9192      2.00000
     38      -9.8596      2.00000
     39      -8.7726      2.00000
     40      -8.7461      2.00000
     41      -8.6285      2.00000
     42      -8.4085      2.00000
     43      -8.3480      2.00000
     44      -7.9870      2.00000
     45      -7.9581      2.00000
     46      -7.3978      2.00000
     47      -7.2794      2.00000
     48      -7.1353      2.00000
     49      -7.0963      2.00000
     50      -7.0619      2.00000
     51      -7.0016      2.00000
     52      -6.9299      2.00000
     53      -6.8720      2.00000
     54      -6.7849      2.00000
     55      -6.6097      2.00000
     56      -6.4958      2.00000
     57      -6.4501      2.00000
     58      -6.3890      2.00000
     59      -6.3366      2.00000
     60      -6.2902      2.00000
     61      -6.1795      2.00000
     62      -6.1494      2.00000
     63      -6.1193      2.00000
     64      -6.0060      2.00000
     65      -5.9658      2.00000
     66      -5.9217      2.00000
     67      -5.8914      2.00000
     68      -5.7932      2.00000
     69      -5.7458      2.00000
     70      -5.6975      2.00000
     71      -5.6372      2.00000
     72      -5.5996      2.00000
     73      -5.5569      2.00000
     74      -5.5179      2.00000
     75      -5.4109      2.00000
     76      -5.3996      2.00000
     77      -5.3640      2.00000
     78      -5.2276      2.00000
     79      -5.1809      2.00000
     80      -5.1196      2.00000
     81      -5.0751      2.00000
     82      -5.0559      2.00000
     83      -4.7499      2.00000
     84      -4.6329      2.00000
     85      -4.5051      2.00000
     86      -4.3860      2.00000
     87      -4.3213      2.00000
     88      -4.3032      2.00000
     89      -4.2785      2.00000
     90      -4.2610      2.00000
     91      -4.2338      2.00000
     92      -4.1750      2.00000
     93      -4.1724      2.00000
     94      -4.1510      2.00000
     95      -4.0836      2.00000
     96      -4.0511      2.00000
     97      -4.0166      2.00000
     98      -3.9983      2.00000
     99      -3.9697      2.00000
    100      -3.7123      2.00000
    101      -3.6186      2.00000
    102      -3.5986      2.00000
    103      -3.5636      2.00000
    104      -3.5169      2.00000
    105      -3.4509      2.00000
    106      -3.1363      2.00000
    107      -2.8909      2.00000
    108      -2.6887      2.00000
    109      -2.6555      2.00000
    110      -2.5982      2.00000
    111      -2.4067      2.00000
    112      -2.2586      2.00000
    113      -1.9949      2.00000
    114      -1.9491      2.00000
    115      -1.9178      2.00000
    116      -1.8810      2.00000
    117      -1.5543      2.00000
    118      -1.0367      2.00000
    119      -0.0630      2.00000
    120       0.7359      0.00000
    121       2.2810      0.00000
    122       2.6210      0.00000
    123       2.7679      0.00000
    124       3.1118      0.00000
    125       3.5097      0.00000
    126       3.5306      0.00000
    127       3.6318      0.00000
    128       3.6749      0.00000
    129       3.7493      0.00000
    130       3.7992      0.00000
    131       3.9748      0.00000
    132       4.3110      0.00000
    133       4.4145      0.00000
    134       4.4530      0.00000
    135       4.5780      0.00000
    136       4.6847      0.00000
    137       4.7271      0.00000
    138       4.9527      0.00000
    139       5.0192      0.00000
    140       5.0591      0.00000
    141       5.1805      0.00000
    142       5.2894      0.00000
    143       5.3497      0.00000
    144       5.4342      0.00000
    145       5.5031      0.00000
    146       5.5264      0.00000
    147       5.6139      0.00000
    148       5.6677      0.00000
    149       5.7345      0.00000
    150       5.8037      0.00000
    151       5.8850      0.00000
    152       5.9508      0.00000
    153       6.0486      0.00000
    154       6.0902      0.00000
    155       6.1653      0.00000
    156       6.2439      0.00000
    157       6.3188      0.00000
    158       6.3477      0.00000
    159       6.4466      0.00000
    160       6.4957      0.00000
    161       6.5964      0.00000
    162       6.6510      0.00000
    163       6.7726      0.00000
    164       6.8231      0.00000
    165       6.9250      0.00000
    166       6.9640      0.00000
    167       7.0439      0.00000
    168       7.2012      0.00000
    169       7.2386      0.00000
    170       7.2823      0.00000
    171       7.3361      0.00000
    172       7.3830      0.00000
    173       7.4447      0.00000
    174       7.4935      0.00000

 k-point    18 :       0.0006    0.0820   -0.2140
  band No.  band energies     occupation 
      1     -17.9794      2.00000
      2     -17.3540      2.00000
      3     -16.9121      2.00000
      4     -16.0747      2.00000
      5     -16.0496      2.00000
      6     -15.6347      2.00000
      7     -15.5744      2.00000
      8     -15.2224      2.00000
      9     -15.2038      2.00000
     10     -15.1523      2.00000
     11     -15.1342      2.00000
     12     -15.1205      2.00000
     13     -14.8904      2.00000
     14     -14.6126      2.00000
     15     -14.1056      2.00000
     16     -13.9591      2.00000
     17     -13.5725      2.00000
     18     -13.5382      2.00000
     19     -12.9200      2.00000
     20     -12.9005      2.00000
     21     -12.7884      2.00000
     22     -12.7694      2.00000
     23     -12.6904      2.00000
     24     -12.6822      2.00000
     25     -12.6081      2.00000
     26     -12.2897      2.00000
     27     -11.3283      2.00000
     28     -11.0376      2.00000
     29     -10.8909      2.00000
     30     -10.8634      2.00000
     31     -10.7149      2.00000
     32     -10.3079      2.00000
     33     -10.2991      2.00000
     34     -10.1034      2.00000
     35     -10.0879      2.00000
     36      -9.9476      2.00000
     37      -9.9297      2.00000
     38      -9.8544      2.00000
     39      -8.7718      2.00000
     40      -8.7456      2.00000
     41      -8.6285      2.00000
     42      -8.4105      2.00000
     43      -8.3483      2.00000
     44      -7.9827      2.00000
     45      -7.9600      2.00000
     46      -7.3991      2.00000
     47      -7.2848      2.00000
     48      -7.1342      2.00000
     49      -7.0994      2.00000
     50      -7.0495      2.00000
     51      -7.0005      2.00000
     52      -6.9328      2.00000
     53      -6.8730      2.00000
     54      -6.7844      2.00000
     55      -6.6127      2.00000
     56      -6.5096      2.00000
     57      -6.4216      2.00000
     58      -6.3971      2.00000
     59      -6.3394      2.00000
     60      -6.2882      2.00000
     61      -6.1850      2.00000
     62      -6.1547      2.00000
     63      -6.1176      2.00000
     64      -6.0096      2.00000
     65      -5.9585      2.00000
     66      -5.9131      2.00000
     67      -5.9050      2.00000
     68      -5.7904      2.00000
     69      -5.7431      2.00000
     70      -5.6935      2.00000
     71      -5.6414      2.00000
     72      -5.6001      2.00000
     73      -5.5533      2.00000
     74      -5.5204      2.00000
     75      -5.4089      2.00000
     76      -5.4028      2.00000
     77      -5.3652      2.00000
     78      -5.2233      2.00000
     79      -5.1833      2.00000
     80      -5.1212      2.00000
     81      -5.0780      2.00000
     82      -5.0520      2.00000
     83      -4.7499      2.00000
     84      -4.6330      2.00000
     85      -4.5027      2.00000
     86      -4.3822      2.00000
     87      -4.3229      2.00000
     88      -4.3044      2.00000
     89      -4.2809      2.00000
     90      -4.2500      2.00000
     91      -4.2478      2.00000
     92      -4.1831      2.00000
     93      -4.1639      2.00000
     94      -4.1495      2.00000
     95      -4.0738      2.00000
     96      -4.0596      2.00000
     97      -4.0129      2.00000
     98      -3.9998      2.00000
     99      -3.9726      2.00000
    100      -3.7136      2.00000
    101      -3.6220      2.00000
    102      -3.6041      2.00000
    103      -3.5550      2.00000
    104      -3.5123      2.00000
    105      -3.4555      2.00000
    106      -3.1366      2.00000
    107      -2.8921      2.00000
    108      -2.6885      2.00000
    109      -2.6563      2.00000
    110      -2.5970      2.00000
    111      -2.4101      2.00000
    112      -2.2427      2.00000
    113      -2.0132      2.00000
    114      -1.9392      2.00000
    115      -1.9231      2.00000
    116      -1.8804      2.00000
    117      -1.5512      2.00000
    118      -1.0372      2.00000
    119      -0.0635      2.00000
    120       0.7370      0.00000
    121       2.2806      0.00000
    122       2.6216      0.00000
    123       2.7678      0.00000
    124       3.1109      0.00000
    125       3.4899      0.00000
    126       3.5541      0.00000
    127       3.6124      0.00000
    128       3.7043      0.00000
    129       3.7407      0.00000
    130       3.7901      0.00000
    131       3.9876      0.00000
    132       4.2954      0.00000
    133       4.4421      0.00000
    134       4.4748      0.00000
    135       4.5103      0.00000
    136       4.6797      0.00000
    137       4.8245      0.00000
    138       4.9165      0.00000
    139       5.0103      0.00000
    140       5.0876      0.00000
    141       5.1259      0.00000
    142       5.2752      0.00000
    143       5.3461      0.00000
    144       5.4423      0.00000
    145       5.4781      0.00000
    146       5.4915      0.00000
    147       5.5852      0.00000
    148       5.7269      0.00000
    149       5.7484      0.00000
    150       5.8571      0.00000
    151       5.9258      0.00000
    152       5.9530      0.00000
    153       6.0765      0.00000
    154       6.1098      0.00000
    155       6.1404      0.00000
    156       6.1813      0.00000
    157       6.2514      0.00000
    158       6.3633      0.00000
    159       6.4034      0.00000
    160       6.5021      0.00000
    161       6.5767      0.00000
    162       6.6634      0.00000
    163       6.7906      0.00000
    164       6.8844      0.00000
    165       6.9214      0.00000
    166       7.0016      0.00000
    167       7.0303      0.00000
    168       7.1790      0.00000
    169       7.2171      0.00000
    170       7.2862      0.00000
    171       7.3512      0.00000
    172       7.4324      0.00000
    173       7.4589      0.00000
    174       7.5225      0.00000

 k-point    19 :      -0.0006   -0.0820    0.2140
  band No.  band energies     occupation 
      1     -17.9794      2.00000
      2     -17.3540      2.00000
      3     -16.9121      2.00000
      4     -16.0747      2.00000
      5     -16.0496      2.00000
      6     -15.6347      2.00000
      7     -15.5744      2.00000
      8     -15.2224      2.00000
      9     -15.2038      2.00000
     10     -15.1523      2.00000
     11     -15.1342      2.00000
     12     -15.1205      2.00000
     13     -14.8904      2.00000
     14     -14.6126      2.00000
     15     -14.1056      2.00000
     16     -13.9591      2.00000
     17     -13.5725      2.00000
     18     -13.5382      2.00000
     19     -12.9200      2.00000
     20     -12.9005      2.00000
     21     -12.7884      2.00000
     22     -12.7694      2.00000
     23     -12.6904      2.00000
     24     -12.6822      2.00000
     25     -12.6081      2.00000
     26     -12.2897      2.00000
     27     -11.3283      2.00000
     28     -11.0376      2.00000
     29     -10.8909      2.00000
     30     -10.8634      2.00000
     31     -10.7149      2.00000
     32     -10.3079      2.00000
     33     -10.2991      2.00000
     34     -10.1034      2.00000
     35     -10.0879      2.00000
     36      -9.9476      2.00000
     37      -9.9297      2.00000
     38      -9.8544      2.00000
     39      -8.7718      2.00000
     40      -8.7456      2.00000
     41      -8.6285      2.00000
     42      -8.4105      2.00000
     43      -8.3483      2.00000
     44      -7.9827      2.00000
     45      -7.9600      2.00000
     46      -7.3991      2.00000
     47      -7.2848      2.00000
     48      -7.1342      2.00000
     49      -7.0994      2.00000
     50      -7.0495      2.00000
     51      -7.0005      2.00000
     52      -6.9328      2.00000
     53      -6.8730      2.00000
     54      -6.7844      2.00000
     55      -6.6127      2.00000
     56      -6.5096      2.00000
     57      -6.4216      2.00000
     58      -6.3971      2.00000
     59      -6.3394      2.00000
     60      -6.2882      2.00000
     61      -6.1850      2.00000
     62      -6.1547      2.00000
     63      -6.1176      2.00000
     64      -6.0096      2.00000
     65      -5.9585      2.00000
     66      -5.9131      2.00000
     67      -5.9050      2.00000
     68      -5.7904      2.00000
     69      -5.7431      2.00000
     70      -5.6935      2.00000
     71      -5.6414      2.00000
     72      -5.6001      2.00000
     73      -5.5533      2.00000
     74      -5.5204      2.00000
     75      -5.4089      2.00000
     76      -5.4028      2.00000
     77      -5.3652      2.00000
     78      -5.2233      2.00000
     79      -5.1833      2.00000
     80      -5.1212      2.00000
     81      -5.0780      2.00000
     82      -5.0520      2.00000
     83      -4.7499      2.00000
     84      -4.6330      2.00000
     85      -4.5027      2.00000
     86      -4.3822      2.00000
     87      -4.3229      2.00000
     88      -4.3044      2.00000
     89      -4.2809      2.00000
     90      -4.2500      2.00000
     91      -4.2478      2.00000
     92      -4.1831      2.00000
     93      -4.1639      2.00000
     94      -4.1495      2.00000
     95      -4.0738      2.00000
     96      -4.0596      2.00000
     97      -4.0129      2.00000
     98      -3.9998      2.00000
     99      -3.9726      2.00000
    100      -3.7136      2.00000
    101      -3.6220      2.00000
    102      -3.6041      2.00000
    103      -3.5550      2.00000
    104      -3.5123      2.00000
    105      -3.4555      2.00000
    106      -3.1366      2.00000
    107      -2.8921      2.00000
    108      -2.6885      2.00000
    109      -2.6563      2.00000
    110      -2.5970      2.00000
    111      -2.4101      2.00000
    112      -2.2427      2.00000
    113      -2.0132      2.00000
    114      -1.9392      2.00000
    115      -1.9231      2.00000
    116      -1.8804      2.00000
    117      -1.5512      2.00000
    118      -1.0372      2.00000
    119      -0.0635      2.00000
    120       0.7370      0.00000
    121       2.2806      0.00000
    122       2.6216      0.00000
    123       2.7678      0.00000
    124       3.1109      0.00000
    125       3.4899      0.00000
    126       3.5541      0.00000
    127       3.6124      0.00000
    128       3.7043      0.00000
    129       3.7407      0.00000
    130       3.7901      0.00000
    131       3.9876      0.00000
    132       4.2954      0.00000
    133       4.4421      0.00000
    134       4.4748      0.00000
    135       4.5103      0.00000
    136       4.6797      0.00000
    137       4.8245      0.00000
    138       4.9165      0.00000
    139       5.0103      0.00000
    140       5.0876      0.00000
    141       5.1259      0.00000
    142       5.2752      0.00000
    143       5.3461      0.00000
    144       5.4423      0.00000
    145       5.4781      0.00000
    146       5.4915      0.00000
    147       5.5852      0.00000
    148       5.7269      0.00000
    149       5.7484      0.00000
    150       5.8571      0.00000
    151       5.9258      0.00000
    152       5.9530      0.00000
    153       6.0765      0.00000
    154       6.1098      0.00000
    155       6.1404      0.00000
    156       6.1813      0.00000
    157       6.2514      0.00000
    158       6.3633      0.00000
    159       6.4034      0.00000
    160       6.5021      0.00000
    161       6.5767      0.00000
    162       6.6634      0.00000
    163       6.7906      0.00000
    164       6.8844      0.00000
    165       6.9214      0.00000
    166       7.0016      0.00000
    167       7.0302      0.00000
    168       7.1783      0.00000
    169       7.2171      0.00000
    170       7.2852      0.00000
    171       7.3513      0.00000
    172       7.4304      0.00000
    173       7.4602      0.00000
    174       7.5170      0.00000


--------------------------------------------------------------------------------------------------------


 soft charge-density along one line, spin component           1
         0         1         2         3         4         5         6         7         8         9
 total charge-density along one line
 
 pseudopotential strength for first ion, spin component:           1
  9.974  13.259   0.001   0.004  -0.002  -0.002  -0.016   0.006
 13.259  17.623   0.001   0.005  -0.002  -0.003  -0.021   0.009
  0.001   0.001  -4.125  -0.003   0.001   8.075   0.004  -0.002
  0.004   0.005  -0.003  -4.142   0.008   0.004   8.101  -0.012
 -0.002  -0.002   0.001   0.008  -4.128  -0.002  -0.012   8.080
 -0.002  -0.003   8.075   0.004  -0.002 -17.931  -0.007   0.004
 -0.016  -0.021   0.004   8.101  -0.012  -0.007 -17.969   0.018
  0.006   0.009  -0.002  -0.012   8.080   0.004   0.018 -17.940
 total augmentation occupancy for first ion, spin component:           1
  2.000   0.000   0.000   0.000   0.000   0.000   0.000   0.000
  0.000   0.000   0.000   0.000   0.000   0.000   0.000   0.000
  0.000   0.000   0.667   0.000   0.000   0.000   0.000   0.000
  0.000   0.000   0.000   0.667   0.000   0.000   0.000   0.000
  0.000   0.000   0.000   0.000   0.667   0.000   0.000   0.000
  0.000   0.000   0.000   0.000   0.000   0.000   0.000   0.000
  0.000   0.000   0.000   0.000   0.000   0.000   0.000   0.000
  0.000   0.000   0.000   0.000   0.000   0.000   0.000   0.000


------------------------ aborting loop because EDIFF is reached ----------------------------------------


    CHARGE:  cpu time    2.0341: real time    2.0413
    FORLOC:  cpu time    0.0139: real time    0.0140
    FORNL :  cpu time   10.7806: real time   10.9137
    STRESS:  cpu time   30.8691: real time   31.0665
    FORCOR:  cpu time    0.0244: real time    0.0248
    FORHAR:  cpu time    0.0175: real time    0.0178
    OFIELD:  cpu time    0.0001: real time    0.0001

 ---------------------------------------------------------------------------------------------

         DFTD3 V3.0 Rev 1        
 IVDW         = 12
 DF pbe       
 parameters
 VDW_S6       =    1.0000
 VDW_S8       =    0.7875
 VDW_A1       =    0.4289
 VDW_A2       =    4.4407
 k1-k3        =   16.0000    1.3333   -4.0000
 VDW_RADIUS   =   50.2022 A
 VDW_CNRADIUS =   21.1671 A
 Edisp (eV)   -6.31966

 E6    (eV) :    -4.6730
 E8    (eV) :    -1.6466
 % E8        : 26.06
    FORVDW:  cpu time    1.1844: real time    1.1919

  FORCE on cell =-STRESS in cart. coord.  units (eV):
  Direction    XX          YY          ZZ          XY          YZ          ZX
  --------------------------------------------------------------------------------------
  Alpha Z   257.24647   257.24647   257.24647
  Ewald   -1447.96392  1544.07650 -1526.18075  1049.95186   393.90055 -1543.56311
  Hartree  1844.64645  3420.91349   439.07009   441.99618   112.89717  -702.13879
  E(xc)    -857.82730  -850.38354  -849.36161     3.35665     1.79976    -4.92504
  Local   -2954.27276 -7408.42935 -1308.80289 -1436.96532  -465.53696  2154.23340
  n-local  -262.38837  -268.11789  -267.64948    -2.57833    -2.29323     3.26588
  augment    -6.43562    -6.90488    -7.04712    -0.23869    -0.20289     0.29409
  Kinetic  3432.12257  3315.72104  3263.73358   -56.93159   -41.88247    92.98723
  Fock        0.00000     0.00000     0.00000     0.00000     0.00000     0.00000
  vdW        -6.46971    -5.76939    -5.68101     0.42546     0.15773    -0.39302
  -------------------------------------------------------------------------------------
  Total      -1.34219    -1.64755    -4.67272    -0.98377    -1.16033    -0.23937
  in kB      -2.05560    -2.52326    -7.15638    -1.50667    -1.77707    -0.36660
  external pressure =       -3.91 kB  Pullay stress =        0.00 kB


 VOLUME and BASIS-vectors are now :
 -----------------------------------------------------------------------------
  energy-cutoff  :     1000.00
  volume of cell :     1046.13
      direct lattice vectors                 reciprocal lattice vectors
     8.195971722  0.086874748  0.026846709     0.121823058  0.017093639  0.002110364
    -1.077678883  7.692361698 -0.096816977    -0.001474985  0.130158787  0.029106756
     0.233139440 -3.712718436 16.614246044    -0.000205447  0.000730859  0.060355515

  length of vectors
     8.196476098  7.768088169 17.025621980     0.123034563  0.133381740  0.060360289


 FORCES acting on ions
    electron-ion (+dipol)            ewald-force                    non-local-force                 convergence-correction
 -----------------------------------------------------------------------------------------------
   -.174E+02 0.230E+00 0.160E+03   0.195E+02 -.102E+01 -.166E+03   -.213E+01 0.812E+00 0.537E+01   0.980E-03 -.327E-01 0.214E-01
   -.204E+02 0.864E+01 0.960E+02   0.194E+02 -.899E+01 -.958E+02   0.112E+01 0.404E+00 -.122E+00   0.333E-02 0.771E-02 -.109E-01
   -.440E+01 -.330E+02 0.668E+01   0.529E+01 0.320E+02 -.516E+01   -.739E+00 0.898E+00 -.134E+01   -.972E-01 0.123E-01 -.132E+00
   0.490E+02 -.496E+01 0.554E+02   -.489E+02 0.597E+01 -.548E+02   -.109E+00 -.111E+01 -.758E+00   -.329E-01 0.365E-01 0.481E-01
   0.491E+01 -.140E+02 0.103E+03   -.485E+01 0.140E+02 -.102E+03   -.260E+00 0.973E-01 -.101E+00   0.113E+00 -.945E-01 -.283E+00
   -.679E+02 0.467E+02 0.216E+02   0.682E+02 -.464E+02 -.215E+02   -.195E+00 -.287E+00 -.841E-01   0.242E-02 0.509E-02 0.213E-01
   -.352E+02 -.101E+03 0.560E+02   0.352E+02 0.101E+03 -.558E+02   -.108E+00 0.107E+00 -.226E+00   0.407E-01 0.532E-01 0.213E-01
   -.320E+02 -.144E+02 0.101E+03   0.318E+02 0.147E+02 -.101E+03   0.245E+00 -.233E+00 -.304E+00   -.404E-01 -.305E-02 0.432E-01
   0.930E+02 0.178E+01 0.238E+02   -.930E+02 -.151E+01 -.235E+02   -.120E+00 -.298E+00 -.206E+00   0.645E-01 0.109E-01 -.362E-01
   -.555E+02 0.362E+02 0.866E+02   0.551E+02 -.362E+02 -.861E+02   0.304E+00 0.530E-01 -.302E+00   0.360E-01 0.188E-01 -.768E-01
   0.242E+02 0.662E+02 0.120E+02   -.245E+02 -.661E+02 -.121E+02   0.304E+00 -.216E-02 -.704E-01   -.334E-01 0.173E-01 0.865E-01
   -.122E+02 -.427E+01 0.108E+03   0.113E+02 0.502E+01 -.106E+03   0.959E+00 -.171E+00 -.235E+01   0.236E-01 -.203E+00 -.191E+00
   0.143E+02 -.254E+01 0.693E+02   -.145E+02 0.202E+01 -.693E+02   0.151E-01 0.553E+00 0.230E+00   0.342E-01 -.215E+00 -.109E+00
   -.290E+02 0.181E+01 0.545E+02   0.291E+02 -.185E+01 -.547E+02   -.304E+00 -.717E+00 0.263E+00   0.109E+00 0.358E+00 -.244E-01
   -.756E+01 0.165E+02 0.187E+03   0.811E+01 -.166E+02 -.188E+03   -.599E+00 0.586E+00 0.137E+01   0.278E-01 -.284E+00 -.750E-01
   0.290E+02 -.181E+01 -.545E+02   -.291E+02 0.185E+01 0.547E+02   0.304E+00 0.717E+00 -.263E+00   -.109E+00 -.358E+00 0.244E-01
   -.143E+02 0.254E+01 -.693E+02   0.145E+02 -.202E+01 0.693E+02   -.151E-01 -.553E+00 -.230E+00   -.342E-01 0.215E+00 0.109E+00
   -.599E+02 0.967E+01 0.159E+03   0.607E+02 -.928E+01 -.160E+03   -.653E+00 -.203E+00 0.143E+01   0.170E-02 0.490E-01 -.924E-01
   0.162E+02 0.123E+02 0.103E+03   -.162E+02 -.122E+02 -.103E+03   -.132E+00 0.874E-01 0.287E+00   0.518E-01 -.197E+00 -.753E-01
   0.122E+02 0.427E+01 -.108E+03   -.113E+02 -.502E+01 0.106E+03   -.959E+00 0.171E+00 0.235E+01   -.236E-01 0.203E+00 0.191E+00
   0.599E+02 -.967E+01 -.159E+03   -.607E+02 0.928E+01 0.160E+03   0.653E+00 0.203E+00 -.143E+01   -.170E-02 -.490E-01 0.924E-01
   0.756E+01 -.165E+02 -.187E+03   -.811E+01 0.166E+02 0.188E+03   0.599E+00 -.586E+00 -.137E+01   -.278E-01 0.284E+00 0.750E-01
   -.354E+02 -.208E+01 0.591E+02   0.356E+02 0.175E+01 -.596E+02   -.221E+00 -.101E+00 0.431E+00   -.251E-01 0.232E+00 0.623E-01
   -.132E+02 0.294E+02 0.207E+03   0.137E+02 -.297E+02 -.208E+03   -.400E+00 0.422E+00 0.912E+00   -.623E-01 -.824E-01 0.710E-01
   0.354E+02 0.208E+01 -.591E+02   -.356E+02 -.175E+01 0.596E+02   0.221E+00 0.101E+00 -.431E+00   0.251E-01 -.232E+00 -.623E-01
   -.491E+01 0.140E+02 -.103E+03   0.485E+01 -.140E+02 0.102E+03   0.260E+00 -.973E-01 0.101E+00   -.113E+00 0.945E-01 0.283E+00
   -.162E+02 -.123E+02 -.103E+03   0.162E+02 0.122E+02 0.103E+03   0.132E+00 -.874E-01 -.287E+00   -.518E-01 0.197E+00 0.753E-01
   -.600E+02 -.103E+02 0.155E+03   0.606E+02 0.105E+02 -.156E+03   -.498E+00 -.135E+00 0.105E+01   -.332E-01 0.432E-01 0.263E-01
   0.396E+02 0.114E+03 0.114E+03   -.395E+02 -.115E+03 -.114E+03   -.382E-01 0.840E+00 0.460E+00   -.147E-01 0.252E-01 -.513E-01
   0.600E+02 0.103E+02 -.155E+03   -.606E+02 -.105E+02 0.156E+03   0.498E+00 0.135E+00 -.105E+01   0.332E-01 -.432E-01 -.263E-01
   0.174E+02 -.230E+00 -.160E+03   -.195E+02 0.102E+01 0.166E+03   0.213E+01 -.812E+00 -.537E+01   -.980E-03 0.327E-01 -.214E-01
   0.132E+02 -.294E+02 -.207E+03   -.137E+02 0.297E+02 0.208E+03   0.400E+00 -.422E+00 -.912E+00   0.623E-01 0.824E-01 -.710E-01
   -.684E+02 -.111E+03 0.490E+02   0.690E+02 0.112E+03 -.498E+02   -.500E+00 -.652E+00 0.575E+00   -.921E-01 -.943E-02 0.172E+00
   0.684E+02 0.111E+03 -.490E+02   -.690E+02 -.112E+03 0.498E+02   0.500E+00 0.652E+00 -.575E+00   0.921E-01 0.943E-02 -.172E+00
   -.396E+02 -.114E+03 -.114E+03   0.395E+02 0.115E+03 0.114E+03   0.382E-01 -.840E+00 -.460E+00   0.147E-01 -.252E-01 0.513E-01
   0.204E+02 -.864E+01 -.960E+02   -.194E+02 0.899E+01 0.958E+02   -.112E+01 -.404E+00 0.122E+00   -.333E-02 -.771E-02 0.109E-01
   0.440E+01 0.330E+02 -.668E+01   -.529E+01 -.320E+02 0.516E+01   0.739E+00 -.898E+00 0.134E+01   0.972E-01 -.123E-01 0.132E+00
   -.490E+02 0.496E+01 -.554E+02   0.489E+02 -.597E+01 0.548E+02   0.109E+00 0.111E+01 0.758E+00   0.329E-01 -.365E-01 -.481E-01
   0.679E+02 -.467E+02 -.216E+02   -.682E+02 0.464E+02 0.215E+02   0.195E+00 0.287E+00 0.841E-01   -.242E-02 -.509E-02 -.213E-01
   0.352E+02 0.101E+03 -.560E+02   -.352E+02 -.101E+03 0.558E+02   0.108E+00 -.107E+00 0.226E+00   -.407E-01 -.532E-01 -.213E-01
   0.320E+02 0.144E+02 -.101E+03   -.318E+02 -.147E+02 0.101E+03   -.245E+00 0.233E+00 0.304E+00   0.404E-01 0.305E-02 -.432E-01
   -.930E+02 -.178E+01 -.238E+02   0.930E+02 0.151E+01 0.235E+02   0.120E+00 0.298E+00 0.206E+00   -.645E-01 -.109E-01 0.362E-01
   0.555E+02 -.362E+02 -.866E+02   -.551E+02 0.362E+02 0.861E+02   -.304E+00 -.530E-01 0.302E+00   -.360E-01 -.188E-01 0.768E-01
   -.242E+02 -.662E+02 -.120E+02   0.245E+02 0.661E+02 0.121E+02   -.304E+00 0.216E-02 0.704E-01   0.334E-01 -.173E-01 -.865E-01
   0.879E+01 -.259E+01 0.483E+02   -.828E+01 0.266E+01 -.493E+02   -.611E+00 0.237E-01 0.104E+01   -.170E-01 -.400E-01 -.275E-02
   -.879E+01 0.259E+01 -.483E+02   0.828E+01 -.266E+01 0.493E+02   0.611E+00 -.237E-01 -.104E+01   0.170E-01 0.400E-01 0.275E-02
   -.326E+02 0.102E+02 0.581E+02   0.350E+02 -.114E+02 -.628E+02   -.242E+01 0.120E+01 0.471E+01   0.952E-02 -.221E-03 -.101E-01
   -.113E+01 -.521E+02 -.781E+01   0.173E+01 0.573E+02 0.986E+01   -.556E+00 -.504E+01 -.192E+01   -.199E-01 -.275E-01 -.339E-01
   0.563E+02 0.111E+02 0.307E+02   -.611E+02 -.114E+02 -.331E+02   0.485E+01 0.367E+00 0.243E+01   -.166E-02 0.423E-02 0.488E-02
   -.502E+02 -.881E+01 0.983E+01   0.553E+02 0.105E+02 -.907E+01   -.514E+01 -.167E+01 -.776E+00   0.878E-02 0.624E-02 0.164E-02
   -.182E+02 0.546E+02 0.207E+02   0.185E+02 -.599E+02 -.216E+02   -.260E+00 0.540E+01 0.932E+00   0.596E-03 -.234E-01 -.256E-02
   0.115E+02 -.217E+01 -.285E+02   -.141E+02 0.282E+01 0.332E+02   0.266E+01 -.659E+00 -.478E+01   -.585E-02 0.436E-02 0.143E-01
   -.514E+02 -.295E+02 0.123E+02   0.565E+02 0.311E+02 -.118E+02   -.513E+01 -.162E+01 -.516E+00   0.769E-02 0.112E-01 0.410E-02
   0.163E+02 -.279E+02 -.222E+02   -.189E+02 0.294E+02 0.268E+02   0.260E+01 -.150E+01 -.462E+01   0.502E-02 0.118E-01 0.138E-01
   0.794E+01 -.380E+02 0.454E+02   -.101E+02 0.409E+02 -.495E+02   0.218E+01 -.289E+01 0.413E+01   0.919E-02 0.924E-02 -.137E-02
   0.167E+02 -.300E+02 0.423E+02   -.190E+02 0.334E+02 -.459E+02   0.241E+01 -.336E+01 0.351E+01   -.471E-02 -.190E-02 0.135E-02
   0.534E+00 0.403E+02 0.359E+02   -.929E+00 -.453E+02 -.381E+02   0.401E+00 0.498E+01 0.217E+01   -.222E-02 -.943E-03 0.680E-04
   -.480E+02 -.160E+02 0.137E+02   0.534E+02 0.173E+02 -.136E+02   -.534E+01 -.132E+01 -.489E-01   -.224E-02 -.445E-02 -.356E-02
   0.323E+02 -.303E+02 0.301E+02   -.350E+02 0.336E+02 -.334E+02   0.268E+01 -.325E+01 0.338E+01   0.881E-02 -.367E-02 -.102E-02
   0.320E+02 -.629E+01 -.310E+02   -.343E+02 0.674E+01 0.360E+02   0.237E+01 -.441E+00 -.499E+01   0.314E-02 -.186E-02 -.738E-02
   0.205E+02 0.464E+02 0.180E+02   -.214E+02 -.515E+02 -.197E+02   0.881E+00 0.507E+01 0.175E+01   0.369E-02 0.546E-02 -.216E-02
   -.609E+00 0.465E+02 0.266E+02   -.686E-01 -.517E+02 -.282E+02   0.639E+00 0.512E+01 0.160E+01   0.889E-02 0.210E-01 -.177E-01
   -.564E+02 0.471E+01 -.520E+01   0.614E+02 -.438E+01 0.740E+01   -.501E+01 -.343E+00 -.219E+01   0.334E-02 0.827E-03 -.886E-02
   -.543E+01 -.196E+02 0.497E+02   0.545E+01 0.226E+02 -.542E+02   -.175E-01 -.306E+01 0.456E+01   0.245E-02 -.782E-02 -.721E-03
   0.196E+02 0.487E+02 0.195E+02   -.208E+02 -.539E+02 -.209E+02   0.122E+01 0.512E+01 0.126E+01   -.730E-02 0.151E-01 0.298E-01
   0.380E+02 -.335E+00 -.119E+02   -.416E+02 0.198E+01 0.158E+02   0.362E+01 -.165E+01 -.389E+01   0.405E-02 -.666E-02 -.847E-03
   -.460E+02 0.114E+02 -.834E+01   0.509E+02 -.116E+02 0.108E+02   -.489E+01 0.141E+00 -.243E+01   -.114E-01 -.727E-03 0.530E-02
   -.114E+02 0.131E+02 0.808E+02   0.136E+02 -.136E+02 -.861E+02   -.226E+01 0.493E+00 0.531E+01   0.126E-01 -.355E-01 -.151E-01
   -.262E+02 0.829E+00 0.742E+02   0.284E+02 -.144E+01 -.795E+02   -.220E+01 0.615E+00 0.532E+01   0.119E-01 0.116E-01 -.256E-01
   0.262E+02 -.829E+00 -.742E+02   -.284E+02 0.144E+01 0.795E+02   0.220E+01 -.615E+00 -.532E+01   -.119E-01 -.116E-01 0.256E-01
   0.114E+02 -.131E+02 -.808E+02   -.136E+02 0.136E+02 0.861E+02   0.226E+01 -.493E+00 -.531E+01   -.126E-01 0.355E-01 0.151E-01
   -.168E+02 0.878E+01 0.837E+02   0.191E+02 -.936E+01 -.890E+02   -.226E+01 0.586E+00 0.524E+01   -.114E-01 -.280E-02 0.169E-01
   -.274E+02 0.263E+01 0.717E+02   0.297E+02 -.315E+01 -.769E+02   -.230E+01 0.526E+00 0.527E+01   -.421E-02 -.876E-03 0.334E-02
   0.929E+01 0.477E+02 0.438E+02   -.982E+01 -.528E+02 -.467E+02   0.536E+00 0.500E+01 0.283E+01   -.222E-02 0.565E-01 0.195E-01
   0.274E+02 -.263E+01 -.717E+02   -.297E+02 0.315E+01 0.769E+02   0.230E+01 -.526E+00 -.527E+01   0.421E-02 0.876E-03 -.334E-02
   0.168E+02 -.878E+01 -.837E+02   -.191E+02 0.936E+01 0.890E+02   0.226E+01 -.586E+00 -.524E+01   0.114E-01 0.280E-02 -.169E-01
   -.281E+02 -.454E+02 0.298E+02   0.309E+02 0.498E+02 -.322E+02   -.284E+01 -.444E+01 0.238E+01   -.122E-01 0.130E-02 0.165E-01
   0.281E+02 0.454E+02 -.298E+02   -.309E+02 -.498E+02 0.322E+02   0.284E+01 0.444E+01 -.238E+01   0.122E-01 -.130E-02 -.165E-01
   -.929E+01 -.477E+02 -.438E+02   0.982E+01 0.528E+02 0.467E+02   -.536E+00 -.500E+01 -.283E+01   0.222E-02 -.565E-01 -.195E-01
   0.326E+02 -.102E+02 -.581E+02   -.350E+02 0.114E+02 0.628E+02   0.242E+01 -.120E+01 -.471E+01   -.952E-02 0.221E-03 0.101E-01
   0.113E+01 0.521E+02 0.781E+01   -.173E+01 -.573E+02 -.986E+01   0.556E+00 0.504E+01 0.192E+01   0.199E-01 0.275E-01 0.339E-01
   -.563E+02 -.111E+02 -.307E+02   0.611E+02 0.114E+02 0.331E+02   -.485E+01 -.367E+00 -.243E+01   0.166E-02 -.423E-02 -.488E-02
   0.502E+02 0.881E+01 -.983E+01   -.553E+02 -.105E+02 0.907E+01   0.514E+01 0.167E+01 0.776E+00   -.878E-02 -.624E-02 -.164E-02
   0.182E+02 -.546E+02 -.207E+02   -.185E+02 0.599E+02 0.216E+02   0.260E+00 -.540E+01 -.932E+00   -.596E-03 0.234E-01 0.256E-02
   -.115E+02 0.217E+01 0.285E+02   0.141E+02 -.282E+01 -.332E+02   -.266E+01 0.659E+00 0.478E+01   0.585E-02 -.436E-02 -.143E-01
   0.514E+02 0.295E+02 -.123E+02   -.565E+02 -.311E+02 0.118E+02   0.513E+01 0.162E+01 0.516E+00   -.769E-02 -.112E-01 -.410E-02
   -.163E+02 0.279E+02 0.222E+02   0.189E+02 -.294E+02 -.268E+02   -.260E+01 0.150E+01 0.462E+01   -.502E-02 -.118E-01 -.138E-01
   -.794E+01 0.380E+02 -.454E+02   0.101E+02 -.409E+02 0.495E+02   -.218E+01 0.289E+01 -.413E+01   -.919E-02 -.924E-02 0.137E-02
   -.167E+02 0.300E+02 -.423E+02   0.190E+02 -.334E+02 0.459E+02   -.241E+01 0.336E+01 -.351E+01   0.471E-02 0.190E-02 -.135E-02
   -.534E+00 -.403E+02 -.359E+02   0.929E+00 0.453E+02 0.381E+02   -.401E+00 -.498E+01 -.217E+01   0.222E-02 0.943E-03 -.680E-04
   0.480E+02 0.160E+02 -.137E+02   -.534E+02 -.173E+02 0.136E+02   0.534E+01 0.132E+01 0.489E-01   0.224E-02 0.445E-02 0.356E-02
   -.323E+02 0.303E+02 -.301E+02   0.350E+02 -.336E+02 0.334E+02   -.268E+01 0.325E+01 -.338E+01   -.881E-02 0.367E-02 0.102E-02
   -.320E+02 0.629E+01 0.310E+02   0.343E+02 -.674E+01 -.360E+02   -.237E+01 0.441E+00 0.499E+01   -.314E-02 0.186E-02 0.738E-02
   -.205E+02 -.464E+02 -.180E+02   0.214E+02 0.515E+02 0.197E+02   -.881E+00 -.507E+01 -.175E+01   -.369E-02 -.546E-02 0.216E-02
   0.609E+00 -.465E+02 -.266E+02   0.686E-01 0.517E+02 0.282E+02   -.639E+00 -.512E+01 -.160E+01   -.889E-02 -.210E-01 0.177E-01
   0.564E+02 -.471E+01 0.520E+01   -.614E+02 0.438E+01 -.740E+01   0.501E+01 0.343E+00 0.219E+01   -.334E-02 -.827E-03 0.886E-02
   0.543E+01 0.196E+02 -.497E+02   -.545E+01 -.226E+02 0.542E+02   0.175E-01 0.306E+01 -.456E+01   -.245E-02 0.782E-02 0.721E-03
   -.196E+02 -.487E+02 -.195E+02   0.208E+02 0.539E+02 0.209E+02   -.122E+01 -.512E+01 -.126E+01   0.730E-02 -.151E-01 -.298E-01
   -.380E+02 0.335E+00 0.119E+02   0.416E+02 -.198E+01 -.158E+02   -.362E+01 0.165E+01 0.389E+01   -.405E-02 0.666E-02 0.847E-03
   0.460E+02 -.114E+02 0.834E+01   -.509E+02 0.116E+02 -.108E+02   0.489E+01 -.141E+00 0.243E+01   0.114E-01 0.727E-03 -.530E-02
 -----------------------------------------------------------------------------------------------
   -.120E-09 0.149E-09 -.285E-09   -.213E-12 0.160E-13 -.373E-13   -.178E-14 0.239E-14 -.178E-14   0.923E-09 -.949E-09 0.198E-08
 
 
 POSITION                                       TOTAL-FORCE (eV/Angst)
 -----------------------------------------------------------------------------------
      5.27463      1.56949      4.54787         0.056220     -0.012436     -0.061700
     -0.14800      1.75966      3.03294         0.039505      0.058926      0.018058
      5.17603      2.40037      1.49897         0.058636     -0.089690      0.054923
      4.88891      7.00849      2.27646         0.038460     -0.044101     -0.043699
      4.78407      1.73480      5.66314        -0.077438      0.046180      0.139374
      0.53898      0.98564      4.16052         0.016584     -0.029254     -0.003447
     -0.07370      3.27109      3.25619        -0.027698     -0.057635     -0.025430
      5.82362      2.32204      0.11574        -0.006335     -0.016757     -0.037816
      3.68752      2.05708      1.45836        -0.045905     -0.027592      0.023737
      5.97467      6.60084      1.27642        -0.062092      0.042240      0.072936
      4.88574      6.09975      3.50517         0.034571      0.072179     -0.044577
      4.22662      1.89218      6.95340         0.109875      0.374021     -0.003838
      3.50814      0.81030      7.54514        -0.065491     -0.189628      0.131142
      4.39799      3.11757      7.66377        -0.162710     -0.394708      0.014881
      3.33196     -0.41004      6.86522         0.004706      0.226386      0.007431
      2.95344      0.94895      8.88051         0.162710      0.394708     -0.014881
      3.84329      3.25622      8.99914         0.065491      0.189628     -0.131142
      5.08631      4.21022      7.09904         0.151286      0.243624     -0.005169
      2.65491     -1.48753      7.43248        -0.047311     -0.048697      0.102837
      3.12481      2.17434      9.59088        -0.109875     -0.374021      0.003838
      2.26512     -0.14370      9.44524        -0.151286     -0.243624      0.005169
      4.01947      4.47656      9.67906        -0.004706     -0.226386     -0.007431
      5.24584      5.41861      7.77713        -0.022487     -0.196398      0.016491
      1.41489      4.96150      6.64866        -0.001096      0.078736     -0.012470
      2.10559     -1.35209      8.76715         0.022487      0.196398     -0.016491
      2.56736      2.33172     10.88114         0.077438     -0.046180     -0.139374
      4.69652      5.55405      9.11180         0.047311      0.048697     -0.102837
      7.01535     -1.15985      7.30586         0.079528      0.094798     -0.003635
      0.75080      3.91617      7.23585         0.014784      0.059618      0.052803
      0.33608      5.22637      9.23842        -0.079528     -0.094798      0.003635
      2.07680      2.49703     11.99641        -0.056220      0.012436      0.061700
      5.93654     -0.89498      9.89561         0.001096     -0.078736      0.012470
      7.14777      0.01429      7.99869         0.032062     -0.072844     -0.049911
      0.20366      4.05223      8.54558        -0.032062      0.072844      0.049911
      6.60064      0.15035      9.30843        -0.014784     -0.059618     -0.052803
      7.49943      2.30686     13.51133        -0.039505     -0.058926     -0.018058
      2.17540      1.66615     15.04530        -0.058636      0.089690     -0.054923
      2.46252     -2.94197     14.26781        -0.038460      0.044101      0.043699
      6.81245      3.08087     12.38375        -0.016584      0.029254      0.003447
      7.42513      0.79543     13.28809         0.027698      0.057635      0.025430
      1.52781      1.74448     16.42854         0.006335      0.016757      0.037816
      3.66391      2.00944     15.08591         0.045905      0.027592     -0.023737
      1.37676     -2.53433     15.26786         0.062092     -0.042240     -0.072936
      2.46569     -2.03323     13.03911        -0.034571     -0.072179      0.044577
      6.14024      1.26398      2.84462        -0.108955      0.054048      0.046831
      1.21119      2.80254     13.69966         0.108955     -0.054048     -0.046831
      0.33956      1.51395      2.07473        -0.006535     -0.004786     -0.003710
      5.29001      3.42471      1.88717         0.027191      0.135359      0.097554
      3.90598      6.93730      1.78174        -0.008803     -0.003760     -0.000426
      1.57523      1.33257      4.30660        -0.003627      0.002105     -0.011172
      0.58050     -0.09456      3.96202        -0.001252      0.051189      0.014131
      0.00716      1.12379      5.11341         0.007466     -0.002677     -0.011559
      0.97483      3.59640      3.36017        -0.002343      0.003873      0.001687
      7.59800      3.65082      4.20512        -0.000120      0.002745      0.005720
     -0.51438      3.83982      2.42527         0.002276     -0.002303      0.007606
      5.56182     -0.70458     16.02253         0.011959     -0.015121      0.007998
      5.97376     -2.40145     16.30209         0.003732      0.009479      0.017452
      6.89084      2.58535      0.13646        -0.001827      0.002797     -0.001731
      3.14749      2.72442      0.76641        -0.002609      0.001976      0.015620
      3.22005      2.14700      2.44879        -0.001197      0.004336      0.006357
      3.52072      1.02810      1.10361         0.013557      0.005834      0.002036
      5.83976      5.55430      0.95739        -0.031765     -0.082565      0.033153
      6.97708      6.67476      1.72360         0.005721     -0.004086      0.002665
      5.97107      7.22039      0.36898        -0.000802     -0.000053     -0.007563
      4.64050      5.06129      3.22964         0.005003     -0.034617     -0.090090
      4.16309      6.42619      4.26374        -0.007536     -0.004512      0.005874
      5.87424      6.07947      3.98592         0.017763      0.005125      0.006542
      3.75360     -0.51013      5.86472        -0.001654      0.003611      0.007562
      5.50222      4.09973      6.09653        -0.003102      0.010475      0.002085
      1.84921     -0.03321     10.44775         0.003102     -0.010475     -0.002085
      3.59783      4.57665     10.67955         0.001654     -0.003611     -0.007562
      1.84493      4.85771      5.65095         0.010613      0.002267      0.007353
      7.44516     -1.26507      6.30979         0.000168      0.004464     -0.001891
      0.64539      2.96958      6.70516         0.010773     -0.026312     -0.005591
     -0.09373      5.33159     10.23449        -0.000168     -0.004464      0.001891
      5.50650     -0.79119     10.89333        -0.010613     -0.002267     -0.007353
      7.68107      0.85424      7.55368        -0.003056     -0.006389      0.000038
     -0.32963      3.21228      8.99060         0.003056      0.006389     -0.000038
      6.70604      1.09693      9.83912        -0.010773      0.026312      0.005591
      7.01187      2.55257     14.46954         0.006535      0.004786      0.003710
      2.06143      0.64181     14.65711        -0.027191     -0.135359     -0.097554
      3.44546     -2.87078     14.76254         0.008803      0.003760      0.000426
      5.77621      2.73395     12.23767         0.003627     -0.002105      0.011172
      6.77093      4.16107     12.58226         0.001252     -0.051189     -0.014131
      7.34427      2.94273     11.43087        -0.007466      0.002677      0.011559
      6.37660      0.47011     13.18411         0.002343     -0.003873     -0.001687
     -0.24657      0.41570     12.33915         0.000120     -0.002745     -0.005720
      7.86582      0.22670     14.11900        -0.002276      0.002303     -0.007606
      1.78962      4.77110      0.52174        -0.011959      0.015121     -0.007998
      1.37767      6.46797      0.24218        -0.003732     -0.009479     -0.017452
      0.46059      1.48117     16.40782         0.001827     -0.002797      0.001731
      4.20394      1.34209     15.77787         0.002609     -0.001976     -0.015620
      4.13138      1.91952     14.09549         0.001197     -0.004336     -0.006357
      3.83071      3.03841     15.44067        -0.013557     -0.005834     -0.002036
      1.51168     -1.48778     15.58689         0.031765      0.082565     -0.033153
      0.37436     -2.60825     14.82067        -0.005721      0.004086     -0.002665
      1.38036     -3.15387     16.17530         0.000802      0.000053      0.007563
      2.71093     -0.99477     13.31463        -0.005003      0.034617      0.090090
      3.18834     -2.35967     12.28053         0.007536      0.004512     -0.005874
      1.47719     -2.01295     12.55835        -0.017763     -0.005125     -0.006542
 -----------------------------------------------------------------------------------
    total drift:                                0.000000     -0.000000      0.000000


--------------------------------------------------------------------------------------------------------



  FREE ENERGIE OF THE ION-ELECTRON SYSTEM (eV)
  ---------------------------------------------------
  free  energy   TOTEN  =      -607.84016829 eV

  energy  without entropy=     -607.84016829  energy(sigma->0) =     -607.84016829
 


--------------------------------------------------------------------------------------------------------


    POTLOK:  cpu time    0.0276: real time    0.0278


--------------------------------------------------------------------------------------------------------


 writing wavefunctions
     LOOP+:  cpu time  400.7842: real time  403.0654
    4ORBIT:  cpu time    0.0000: real time    0.0000

 total amount of memory used by VASP MPI-rank0   146327. kBytes
=======================================================================

   base      :      30000. kBytes
   nonlr-proj:      16956. kBytes
   fftplans  :       6535. kBytes
   grid      :       9156. kBytes
   one-center:        105. kBytes
   wavefun   :      83575. kBytes
 
  
  
 General timing and accounting informations for this job:
 ========================================================
  
                  Total CPU time used (sec):      420.243
                            User time (sec):      408.516
                          System time (sec):       11.727
                         Elapsed time (sec):      423.506
  
                   Maximum memory used (kb):      536680.
                   Average memory used (kb):           0.
  
                          Minor page faults:      2050960
                          Major page faults:            0
                 Voluntary context switches:         4120
