 # of atoms in A and D:    18    18
 # of MOs for A and D:     48    48
 #MO_A #MO_D      t(meV)    t(cm~-1)   eMO_A(eV)   eMO_D(eV)
     1     1    204.8845   1652.5047    -48.3719    -48.3720
     1     2    155.4703   1253.9528    -48.3719    -42.7709
     1     3   -413.9166  -3338.4625    -48.3719    -36.3934
     1     4    -53.2686   -429.6402    -48.3719    -33.2769
     1     5    301.0703   2428.2954    -48.3719    -31.0876
     1     6    -50.4051   -406.5446    -48.3719    -27.1686
     1     7    522.0750   4210.8188    -48.3719    -27.0268
     1     8    154.4358   1245.6085    -48.3719    -26.1751
     1     9    364.4103   2939.1672    -48.3719    -22.1900
     1    10     27.5108    221.8898    -48.3719    -20.1353
     1    11     28.6428    231.0198    -48.3719    -18.6053
     1    12   -442.6091  -3569.8829    -48.3719    -16.4469
     1    13    119.4419    963.3643    -48.3719    -16.3045
     1    14    144.0213   1161.6100    -48.3719    -15.5035
     1    15    308.7640   2490.3497    -48.3719    -14.4321
     1    16    -82.4930   -665.3506    -48.3719    -14.1642
     1    17    182.9648   1475.7103    -48.3719    -13.9646
     1    18   -119.0599   -960.2831    -48.3719    -12.8334
     1    19    105.0875    847.5880    -48.3719    -12.2143
     1    20   -295.4214  -2382.7346    -48.3719    -11.3952
     1    21    -36.5531   -294.8210    -48.3719    -11.0568
     1    22    153.1462   1235.2075    -48.3719    -10.4454
     1    23     31.3871    253.1541    -48.3719     -8.8967
     1    24   -115.5069   -931.6261    -48.3719     -7.7768
     1    25    -52.8964   -426.6384    -48.3719      0.0833
     1    26     29.4722    237.7091    -48.3719      0.9324
     1    27     79.0364    637.4716    -48.3719      1.8324
     1    28     -9.6054    -77.4726    -48.3719      2.7318
     1    29    124.7949   1006.5387    -48.3719      3.1884
     1    30    -30.1389   -243.0863    -48.3719      3.8433
     1    31     44.3329    357.5693    -48.3719      3.9609
     1    32   -126.3948  -1019.4432    -48.3719      4.0622
     1    33     95.2586    768.3127    -48.3719      4.2877
     1    34   -168.5505  -1359.4512    -48.3719      4.3750
     1    35    -97.8336   -789.0809    -48.3719      5.4321
     1    36   -217.3837  -1753.3175    -48.3719      5.4342
     1    37    164.7271   1328.6134    -48.3719      5.6311
     1    38   -215.8585  -1741.0158    -48.3719      6.3518
     1    39    133.1555   1073.9718    -48.3719      7.2988
     1    40     38.1903    308.0251    -48.3719      8.5077
     1    41    -34.4328   -277.7194    -48.3719      8.6839
     1    42    -56.1253   -452.6808    -48.3719      9.3180
     1    43    -42.9977   -346.7998    -48.3719     10.2653
     1    44    -38.3955   -309.6807    -48.3719     10.6610
     1    45     33.0957    266.9350    -48.3719     12.1820
     1    46     48.3515    389.9814    -48.3719     12.8170
     1    47     -9.6331    -77.6962    -48.3719     13.4656
     1    48      3.1080     25.0676    -48.3719     14.4127
     2     1     56.1112    452.5673    -42.7714    -48.3720
     2     2    -52.4564   -423.0891    -42.7714    -42.7709
     2     3   -166.6744  -1344.3200    -42.7714    -36.3934
     2     4    123.9956   1000.0921    -42.7714    -33.2769
     2     5    -62.7575   -506.1731    -42.7714    -31.0876
     2     6     92.7990    748.4748    -42.7714    -27.1686
     2     7    226.7459   1828.8287    -42.7714    -27.0268
     2     8   -103.8184   -837.3520    -42.7714    -26.1751
     2     9    -27.5035   -221.8306    -42.7714    -22.1900
     2    10    -33.2746   -268.3774    -42.7714    -20.1353
     2    11    118.6570    957.0332    -42.7714    -18.6053
     2    12   -290.5332  -2343.3081    -42.7714    -16.4469
     2    13    -91.4956   -737.9618    -42.7714    -16.3045
     2    14     13.8628    111.8111    -42.7714    -15.5035
     2    15     17.2996    139.5307    -42.7714    -14.4321
     2    16     18.0237    145.3710    -42.7714    -14.1642
     2    17    -18.3557   -148.0486    -42.7714    -13.9646
     2    18   -104.8436   -845.6207    -42.7714    -12.8334
     2    19    -50.5861   -408.0046    -42.7714    -12.2143
     2    20   -221.9120  -1789.8410    -42.7714    -11.3952
     2    21     47.3167    381.6352    -42.7714    -11.0568
     2    22     27.8616    224.7190    -42.7714    -10.4454
     2    23    -44.5277   -359.1399    -42.7714     -8.8967
     2    24     31.4493    253.6553    -42.7714     -7.7768
     2    25    -13.9764   -112.7276    -42.7714      0.0833
     2    26    -36.5365   -294.6867    -42.7714      0.9324
     2    27     39.2780    316.7981    -42.7714      1.8324
     2    28    -27.5629   -222.3098    -42.7714      2.7318
     2    29    120.5625    972.4019    -42.7714      3.1884
     2    30    -58.6683   -473.1921    -42.7714      3.8433
     2    31     31.9467    257.6674    -42.7714      3.9609
     2    32   -109.5849   -883.8616    -42.7714      4.0622
     2    33    -21.3181   -171.9421    -42.7714      4.2877
     2    34    -25.6038   -206.5085    -42.7714      4.3750
     2    35     47.3163    381.6320    -42.7714      5.4321
     2    36    -54.5849   -440.2566    -42.7714      5.4342
     2    37     -6.0180    -48.5385    -42.7714      5.6311
     2    38   -115.2641   -929.6676    -42.7714      6.3518
     2    39    114.3243    922.0875    -42.7714      7.2988
     2    40     38.0561    306.9435    -42.7714      8.5077
     2    41    -61.5083   -496.0978    -42.7714      8.6839
     2    42    -35.7854   -288.6285    -42.7714      9.3180
     2    43    -53.6106   -432.3987    -42.7714     10.2653
     2    44     -5.9723    -48.1702    -42.7714     10.6610
     2    45     28.3167    228.3894    -42.7714     12.1820
     2    46     39.9267    322.0303    -42.7714     12.8170
     2    47     -9.4612    -76.3094    -42.7714     13.4656
     2    48     -5.3505    -43.1549    -42.7714     14.4127
     3     1      3.2244     26.0068    -36.3930    -48.3720
     3     2    -24.9548   -201.2740    -36.3930    -42.7709
     3     3     35.8022    288.7644    -36.3930    -36.3934
     3     4     24.8069    200.0808    -36.3930    -33.2769
     3     5    -84.5507   -681.9472    -36.3930    -31.0876
     3     6     15.1623    122.2921    -36.3930    -27.1686
     3     7    -85.9036   -692.8594    -36.3930    -27.0268
     3     8    -49.3818   -398.2913    -36.3930    -26.1751
     3     9   -133.6633  -1078.0672    -36.3930    -22.1900
     3    10     -5.3389    -43.0609    -36.3930    -20.1353
     3    11    -18.3565   -148.0552    -36.3930    -18.6053
     3    12    100.0895    807.2763    -36.3930    -16.4469
     3    13    -44.6956   -360.4943    -36.3930    -16.3045
     3    14     65.6488    529.4932    -36.3930    -15.5035
     3    15   -137.5910  -1109.7466    -36.3930    -14.4321
     3    16     37.5040    302.4905    -36.3930    -14.1642
     3    17    -52.4146   -422.7520    -36.3930    -13.9646
     3    18     62.3013    502.4941    -36.3930    -12.8334
     3    19     31.1155    250.9631    -36.3930    -12.2143
     3    20     76.9359    620.5297    -36.3930    -11.3952
     3    21     17.0760    137.7269    -36.3930    -11.0568
     3    22     62.6476    505.2867    -36.3930    -10.4454
     3    23      2.3033     18.5778    -36.3930     -8.8967
     3    24    -27.0168   -217.9054    -36.3930     -7.7768
     3    25    -11.0777    -89.3477    -36.3930      0.0833
     3    26      0.8920      7.1942    -36.3930      0.9324
     3    27     27.0722    218.3518    -36.3930      1.8324
     3    28     -1.4557    -11.7408    -36.3930      2.7318
     3    29    -40.9569   -330.3401    -36.3930      3.1884
     3    30     24.1577    194.8451    -36.3930      3.8433
     3    31     13.6986    110.4865    -36.3930      3.9609
     3    32     42.3675    341.7167    -36.3930      4.0622
     3    33    -42.9382   -346.3202    -36.3930      4.2877
     3    34    101.0611    815.1125    -36.3930      4.3750
     3    35     52.6864    424.9446    -36.3930      5.4321
     3    36     86.6092    698.5500    -36.3930      5.4342
     3    37    -98.1863   -791.9261    -36.3930      5.6311
     3    38     82.9661    669.1670    -36.3930      6.3518
     3    39    -51.2857   -413.6467    -36.3930      7.2988
     3    40    -28.2418   -227.7858    -36.3930      8.5077
     3    41     12.7654    102.9600    -36.3930      8.6839
     3    42     43.3755    349.8472    -36.3930      9.3180
     3    43     21.5732    173.9995    -36.3930     10.2653
     3    44     34.8666    281.2183    -36.3930     10.6610
     3    45    -21.8661   -176.3624    -36.3930     12.1820
     3    46    -30.6170   -246.9426    -36.3930     12.8170
     3    47      8.9078     71.8465    -36.3930     13.4656
     3    48     -8.0755    -65.1337    -36.3930     14.4127
     4     1     -4.1883    -33.7812    -33.2773    -48.3720
     4     2     46.0770    371.6363    -33.2773    -42.7709
     4     3      6.3614     51.3078    -33.2773    -36.3934
     4     4     11.5543     93.1920    -33.2773    -33.2769
     4     5    120.6530    973.1319    -33.2773    -31.0876
     4     6     57.3985    462.9502    -33.2773    -27.1686
     4     7     -8.0190    -64.6776    -33.2773    -27.0268
     4     8      3.3075     26.6770    -33.2773    -26.1751
     4     9    179.4160   1447.0875    -33.2773    -22.1900
     4    10    -47.7649   -385.2495    -33.2773    -20.1353
     4    11    113.1870    912.9145    -33.2773    -18.6053
     4    12     -6.3610    -51.3052    -33.2773    -16.4469
     4    13    -11.1977    -90.3154    -33.2773    -16.3045
     4    14     14.8474    119.7525    -33.2773    -15.5035
     4    15    174.6904   1408.9734    -33.2773    -14.4321
     4    16    -17.3514   -139.9482    -33.2773    -14.1642
     4    17    -50.8030   -409.7539    -33.2773    -13.9646
     4    18   -142.4339  -1148.8073    -33.2773    -12.8334
     4    19     34.2209    276.0104    -33.2773    -12.2143
     4    20     -5.6297    -45.4066    -33.2773    -11.3952
     4    21     32.3419    260.8553    -33.2773    -11.0568
     4    22     21.0001    169.3771    -33.2773    -10.4454
     4    23     -4.6182    -37.2482    -33.2773     -8.8967
     4    24    -53.4347   -430.9795    -33.2773     -7.7768
     4    25    -49.4877   -399.1452    -33.2773      0.0833
     4    26     -1.5556    -12.5471    -33.2773      0.9324
     4    27     19.0090    153.3178    -33.2773      1.8324
     4    28    -27.9887   -225.7439    -33.2773      2.7318
     4    29      1.3174     10.6258    -33.2773      3.1884
     4    30    -63.2399   -510.0639    -33.2773      3.8433
     4    31     11.4512     92.3599    -33.2773      3.9609
     4    32     -1.3438    -10.8381    -33.2773      4.0622
     4    33     -7.4149    -59.8055    -33.2773      4.2877
     4    34   -101.0151   -814.7416    -33.2773      4.3750
     4    35      1.6277     13.1287    -33.2773      5.4321
     4    36     39.1398    315.6836    -33.2773      5.4342
     4    37     71.8361    579.3969    -33.2773      5.6311
     4    38     31.5265    254.2783    -33.2773      6.3518
     4    39    -19.3060   -155.7135    -33.2773      7.2988
     4    40     50.7273    409.1433    -33.2773      8.5077
     4    41    -15.1276   -122.0125    -33.2773      8.6839
     4    42    -51.9729   -419.1900    -33.2773      9.3180
     4    43    -11.9511    -96.3918    -33.2773     10.2653
     4    44    -12.5094   -100.8955    -33.2773     10.6610
     4    45     -4.9433    -39.8704    -33.2773     12.1820
     4    46    -17.1079   -137.9846    -33.2773     12.8170
     4    47     -7.6946    -62.0614    -33.2773     13.4656
     4    48     -6.4564    -52.0744    -33.2773     14.4127
     5     1    -10.3874    -83.7796    -31.0875    -48.3720
     5     2     13.0565    105.3077    -31.0875    -42.7709
     5     3     13.2261    106.6754    -31.0875    -36.3934
     5     4      8.8352     71.2609    -31.0875    -33.2769
     5     5     25.2193    203.4077    -31.0875    -31.0876
     5     6     28.9031    233.1191    -31.0875    -27.1686
     5     7     -2.0056    -16.1764    -31.0875    -27.0268
     5     8    -13.3889   -107.9887    -31.0875    -26.1751
     5     9     44.4299    358.3513    -31.0875    -22.1900
     5    10    -22.7943   -183.8482    -31.0875    -20.1353
     5    11     57.9269    467.2117    -31.0875    -18.6053
     5    12    -35.1684   -283.6526    -31.0875    -16.4469
     5    13    -21.9847   -177.3186    -31.0875    -16.3045
     5    14    -21.9816   -177.2933    -31.0875    -15.5035
     5    15     54.3567    438.4163    -31.0875    -14.4321
     5    16     -3.4143    -27.5379    -31.0875    -14.1642
     5    17    -29.5127   -238.0360    -31.0875    -13.9646
     5    18    -66.4978   -536.3412    -31.0875    -12.8334
     5    19     21.9320    176.8936    -31.0875    -12.2143
     5    20    -38.5439   -310.8779    -31.0875    -11.3952
     5    21     19.8430    160.0449    -31.0875    -11.0568
     5    22    -27.7141   -223.5291    -31.0875    -10.4454
     5    23     16.8908    136.2331    -31.0875     -8.8967
     5    24    -18.1792   -146.6254    -31.0875     -7.7768
     5    25     -4.2936    -34.6300    -31.0875      0.0833
     5    26     11.4467     92.3243    -31.0875      0.9324
     5    27    -19.5710   -157.8504    -31.0875      1.8324
     5    28      0.9011      7.2678    -31.0875      2.7318
     5    29     32.8787    265.1845    -31.0875      3.1884
     5    30    -39.4025   -317.8024    -31.0875      3.8433
     5    31    -12.6191   -101.7799    -31.0875      3.9609
     5    32    -29.1878   -235.4154    -31.0875      4.0622
     5    33    -10.1612    -81.9553    -31.0875      4.2877
     5    34    -41.2375   -332.6027    -31.0875      4.3750
     5    35     15.6654    126.3498    -31.0875      5.4321
     5    36      0.2887      2.3284    -31.0875      5.4342
     5    37     21.2861    171.6837    -31.0875      5.6311
     5    38    -21.0006   -169.3815    -31.0875      6.3518
     5    39     29.2957    236.2861    -31.0875      7.2988
     5    40     30.6553    247.2520    -31.0875      8.5077
     5    41    -28.1135   -226.7508    -31.0875      8.6839
     5    42    -30.0127   -242.0690    -31.0875      9.3180
     5    43    -25.1708   -203.0163    -31.0875     10.2653
     5    44     -7.0224    -56.6396    -31.0875     10.6610
     5    45      9.0947     73.3534    -31.0875     12.1820
     5    46     13.0967    105.6322    -31.0875     12.8170
     5    47     -2.8467    -22.9598    -31.0875     13.4656
     5    48     -1.3859    -11.1782    -31.0875     14.4127
     6     1     10.8352     87.3918    -27.1687    -48.3720
     6     2    -25.4003   -204.8669    -27.1687    -42.7709
     6     3    -24.0988   -194.3699    -27.1687    -36.3934
     6     4     -1.5840    -12.7757    -27.1687    -33.2769
     6     5    -60.8588   -490.8595    -27.1687    -31.0876
     6     6     -6.0695    -48.9535    -27.1687    -27.1686
     6     7     31.9101    257.3721    -27.1687    -27.0268
     6     8     18.1996    146.7899    -27.1687    -26.1751
     6     9   -100.4595   -810.2604    -27.1687    -22.1900
     6    10    -18.5437   -149.5648    -27.1687    -20.1353
     6    11    -51.8541   -418.2314    -27.1687    -18.6053
     6    12    -32.3300   -260.7587    -27.1687    -16.4469
     6    13      9.1744     73.9965    -27.1687    -16.3045
     6    14      5.0864     41.0248    -27.1687    -15.5035
     6    15   -115.4373   -931.0650    -27.1687    -14.4321
     6    16     42.9421    346.3516    -27.1687    -14.1642
     6    17     -3.4679    -27.9705    -27.1687    -13.9646
     6    18     80.1146    646.1679    -27.1687    -12.8334
     6    19     -4.8236    -38.9053    -27.1687    -12.2143
     6    20    -21.6114   -174.3075    -27.1687    -11.3952
     6    21     13.7868    111.1983    -27.1687    -11.0568
     6    22      4.3706     35.2510    -27.1687    -10.4454
     6    23      9.2068     74.2576    -27.1687     -8.8967
     6    24     10.6211     85.6651    -27.1687     -7.7768
     6    25     15.4590    124.6848    -27.1687      0.0833
     6    26      9.3692     75.5676    -27.1687      0.9324
     6    27      1.5960     12.8725    -27.1687      1.8324
     6    28     12.3903     99.9344    -27.1687      2.7318
     6    29     16.2762    131.2761    -27.1687      3.1884
     6    30     32.1479    259.2906    -27.1687      3.8433
     6    31      1.0799      8.7096    -27.1687      3.9609
     6    32    -17.7216   -142.9342    -27.1687      4.0622
     6    33      1.8493     14.9158    -27.1687      4.2877
     6    34     74.2388    598.7764    -27.1687      4.3750
     6    35     30.7029    247.6358    -27.1687      5.4321
     6    36     -4.3275    -34.9038    -27.1687      5.4342
     6    37    -64.5814   -520.8843    -27.1687      5.6311
     6    38    -14.7306   -118.8101    -27.1687      6.3518
     6    39     14.4126    116.2456    -27.1687      7.2988
     6    40    -21.5836   -174.0833    -27.1687      8.5077
     6    41    -15.2253   -122.8004    -27.1687      8.6839
     6    42     34.1375    275.3379    -27.1687      9.3180
     6    43    -10.9235    -88.1040    -27.1687     10.2653
     6    44     32.6647    263.4589    -27.1687     10.6610
     6    45     -2.1552    -17.3831    -27.1687     12.1820
     6    46      3.5108     28.3167    -27.1687     12.8170
     6    47      5.9189     47.7392    -27.1687     13.4656
     6    48    -11.0390    -89.0355    -27.1687     14.4127
     7     1    -13.6056   -109.7368    -27.0264    -48.3720
     7     2      2.7948     22.5413    -27.0264    -42.7709
     7     3      0.6991      5.6384    -27.0264    -36.3934
     7     4      2.2647     18.2658    -27.0264    -33.2769
     7     5     21.5970    174.1919    -27.0264    -31.0876
     7     6      9.5601     77.1073    -27.0264    -27.1686
     7     7     14.3215    115.5104    -27.0264    -27.0268
     7     8      4.7830     38.5778    -27.0264    -26.1751
     7     9     33.5901    270.9227    -27.0264    -22.1900
     7    10    -11.1698    -90.0906    -27.0264    -20.1353
     7    11     16.2813    131.3175    -27.0264    -18.6053
     7    12    -19.9022   -160.5219    -27.0264    -16.4469
     7    13      0.9439      7.6133    -27.0264    -16.3045
     7    14      1.0328      8.3302    -27.0264    -15.5035
     7    15     26.7967    216.1302    -27.0264    -14.4321
     7    16      2.2956     18.5154    -27.0264    -14.1642
     7    17     -6.6837    -53.9074    -27.0264    -13.9646
     7    18    -19.4812   -157.1264    -27.0264    -12.8334
     7    19     19.8314    159.9514    -27.0264    -12.2143
     7    20    -12.6537   -102.0593    -27.0264    -11.3952
     7    21      9.7897     78.9592    -27.0264    -11.0568
     7    22      8.6051     69.4050    -27.0264    -10.4454
     7    23      7.5171     60.6297    -27.0264     -8.8967
     7    24    -28.3185   -228.4042    -27.0264     -7.7768
     7    25    -19.3849   -156.3495    -27.0264      0.0833
     7    26      8.1868     66.0309    -27.0264      0.9324
     7    27     11.8938     95.9300    -27.0264      1.8324
     7    28     -7.4319    -59.9425    -27.0264      2.7318
     7    29      3.2547     26.2505    -27.0264      3.1884
     7    30     -5.4779    -44.1820    -27.0264      3.8433
     7    31      7.9906     64.4488    -27.0264      3.9609
     7    32     -3.0976    -24.9839    -27.0264      4.0622
     7    33     -3.7339    -30.1158    -27.0264      4.2877
     7    34     -0.8362     -6.7443    -27.0264      4.3750
     7    35     10.5906     85.4186    -27.0264      5.4321
     7    36     15.1592    122.2671    -27.0264      5.4342
     7    37     -5.0134    -40.4356    -27.0264      5.6311
     7    38     12.0453     97.1519    -27.0264      6.3518
     7    39     -8.0856    -65.2151    -27.0264      7.2988
     7    40      1.3075     10.5457    -27.0264      8.5077
     7    41     -4.2413    -34.2083    -27.0264      8.6839
     7    42      4.8039     38.7458    -27.0264      9.3180
     7    43     -0.2757     -2.2236    -27.0264     10.2653
     7    44     12.7742    103.0305    -27.0264     10.6610
     7    45     -7.0424    -56.8005    -27.0264     12.1820
     7    46     -9.5695    -77.1835    -27.0264     12.8170
     7    47      2.1662     17.4717    -27.0264     13.4656
     7    48     -6.6917    -53.9722    -27.0264     14.4127
     8     1      8.8387     71.2892    -26.1751    -48.3720
     8     2    -10.5053    -84.7313    -26.1751    -42.7709
     8     3    -24.2337   -195.4580    -26.1751    -36.3934
     8     4      5.8978     47.5686    -26.1751    -33.2769
     8     5    -13.9350   -112.3931    -26.1751    -31.0876
     8     6      4.6203     37.2651    -26.1751    -27.1686
     8     7     35.7746    288.5413    -26.1751    -27.0268
     8     8     -0.6405     -5.1656    -26.1751    -26.1751
     8     9     -7.7646    -62.6256    -26.1751    -22.1900
     8    10     -9.2116    -74.2965    -26.1751    -20.1353
     8    11      8.4495     68.1498    -26.1751    -18.6053
     8    12    -42.8853   -345.8934    -26.1751    -16.4469
     8    13     -4.4499    -35.8909    -26.1751    -16.3045
     8    14      5.6384     45.4766    -26.1751    -15.5035
     8    15      0.1681      1.3556    -26.1751    -14.4321
     8    16      9.9237     80.0397    -26.1751    -14.1642
     8    17     -4.9709    -40.0933    -26.1751    -13.9646
     8    18    -11.7993    -95.1675    -26.1751    -12.8334
     8    19    -16.0467   -129.4256    -26.1751    -12.2143
     8    20    -31.5618   -254.5632    -26.1751    -11.3952
     8    21     14.0551    113.3623    -26.1751    -11.0568
     8    22      5.1839     41.8107    -26.1751    -10.4454
     8    23      2.7523     22.1990    -26.1751     -8.8967
     8    24     23.9213    192.9384    -26.1751     -7.7768
     8    25     21.0742    169.9752    -26.1751      0.0833
     8    26      0.7787      6.2808    -26.1751      0.9324
     8    27      2.5115     20.2567    -26.1751      1.8324
     8    28     10.7006     86.3061    -26.1751      2.7318
     8    29     18.3259    147.8082    -26.1751      3.1884
     8    30    -13.9575   -112.5752    -26.1751      3.8433
     8    31      1.6280     13.1307    -26.1751      3.9609
     8    32    -16.8754   -136.1096    -26.1751      4.0622
     8    33     -2.5515    -20.5791    -26.1751      4.2877
     8    34    -11.2092    -90.4080    -26.1751      4.3750
     8    35     10.0575     81.1195    -26.1751      5.4321
     8    36     -0.7960     -6.4204    -26.1751      5.4342
     8    37      4.0560     32.7138    -26.1751      5.6311
     8    38     -9.5421    -76.9623    -26.1751      6.3518
     8    39     10.8854     87.7966    -26.1751      7.2988
     8    40     13.7156    110.6236    -26.1751      8.5077
     8    41    -12.6380   -101.9322    -26.1751      8.6839
     8    42    -12.1909    -98.3259    -26.1751      9.3180
     8    43     -9.7004    -78.2387    -26.1751     10.2653
     8    44      1.6700     13.4694    -26.1751     10.6610
     8    45      0.3888      3.1361    -26.1751     12.1820
     8    46      0.5401      4.3563    -26.1751     12.8170
     8    47     -4.2140    -33.9880    -26.1751     13.4656
     8    48     -5.6193    -45.3227    -26.1751     14.4127
     9     1      5.6984     45.9611    -22.1895    -48.3720
     9     2     -9.5452    -76.9868    -22.1895    -42.7709
     9     3     -7.2060    -58.1201    -22.1895    -36.3934
     9     4      4.0630     32.7702    -22.1895    -33.2769
     9     5    -10.3118    -83.1707    -22.1895    -31.0876
     9     6      3.0702     24.7626    -22.1895    -27.1686
     9     7      2.8106     22.6689    -22.1895    -27.0268
     9     8      2.0813     16.7866    -22.1895    -26.1751
     9     9    -10.8575    -87.5718    -22.1895    -22.1900
     9    10     -6.8152    -54.9683    -22.1895    -20.1353
     9    11     -2.3876    -19.2574    -22.1895    -18.6053
     9    12     -0.1842     -1.4860    -22.1895    -16.4469
     9    13      1.0489      8.4600    -22.1895    -16.3045
     9    14      9.2365     74.4972    -22.1895    -15.5035
     9    15    -10.3855    -83.7646    -22.1895    -14.4321
     9    16      7.5924     61.2366    -22.1895    -14.1642
     9    17     -6.3011    -50.8216    -22.1895    -13.9646
     9    18      4.3914     35.4188    -22.1895    -12.8334
     9    19     -6.0372    -48.6933    -22.1895    -12.2143
     9    20      0.6935      5.5935    -22.1895    -11.3952
     9    21      6.1508     49.6096    -22.1895    -11.0568
     9    22      9.2352     74.4868    -22.1895    -10.4454
     9    23      0.6866      5.5381    -22.1895     -8.8967
     9    24      7.4165     59.8179    -22.1895     -7.7768
     9    25      9.2516     74.6192    -22.1895      0.0833
     9    26      2.6092     21.0448    -22.1895      0.9324
     9    27      0.8071      6.5101    -22.1895      1.8324
     9    28      7.5246     60.6897    -22.1895      2.7318
     9    29      2.7690     22.3337    -22.1895      3.1884
     9    30     -3.0037    -24.2265    -22.1895      3.8433
     9    31     -1.8036    -14.5467    -22.1895      3.9609
     9    32     -3.6948    -29.8004    -22.1895      4.0622
     9    33     -0.9853     -7.9471    -22.1895      4.2877
     9    34      0.6099      4.9195    -22.1895      4.3750
     9    35      7.9241     63.9123    -22.1895      5.4321
     9    36      4.9975     40.3073    -22.1895      5.4342
     9    37     -2.5562    -20.6170    -22.1895      5.6311
     9    38      0.3782      3.0503    -22.1895      6.3518
     9    39      2.1914     17.6749    -22.1895      7.2988
     9    40      6.9859     56.3454    -22.1895      8.5077
     9    41     -8.4243    -67.9465    -22.1895      8.6839
     9    42     -4.8770    -39.3353    -22.1895      9.3180
     9    43     -6.7456    -54.4067    -22.1895     10.2653
     9    44      4.0250     32.4638    -22.1895     10.6610
     9    45     -0.7258     -5.8538    -22.1895     12.1820
     9    46     -0.8759     -7.0647    -22.1895     12.8170
     9    47     -1.4300    -11.5334    -22.1895     13.4656
     9    48     -4.2062    -33.9256    -22.1895     14.4127
    10     1     16.2382    130.9701    -20.1355    -48.3720
    10     2     -1.4386    -11.6034    -20.1355    -42.7709
    10     3    -32.2633   -260.2208    -20.1355    -36.3934
    10     4     -1.7084    -13.7788    -20.1355    -33.2769
    10     5    -10.3571    -83.5355    -20.1355    -31.0876
    10     6      2.0901     16.8577    -20.1355    -27.1686
    10     7     43.9053    354.1204    -20.1355    -27.0268
    10     8     11.2744     90.9343    -20.1355    -26.1751
    10     9    -19.1604   -154.5391    -20.1355    -22.1900
    10    10     -9.4926    -76.5626    -20.1355    -20.1353
    10    11     -3.3439    -26.9700    -20.1355    -18.6053
    10    12    -49.4810   -399.0913    -20.1355    -16.4469
    10    13      5.1082     41.2006    -20.1355    -16.3045
    10    14      4.6591     37.5778    -20.1355    -15.5035
    10    15    -22.7567   -183.5451    -20.1355    -14.4321
    10    16      8.8816     71.6353    -20.1355    -14.1642
    10    17      2.5794     20.8046    -20.1355    -13.9646
    10    18     11.2956     91.1053    -20.1355    -12.8334
    10    19     -0.3936     -3.1747    -20.1355    -12.2143
    10    20    -36.8762   -297.4269    -20.1355    -11.3952
    10    21      5.2511     42.3534    -20.1355    -11.0568
    10    22      6.0002     48.3947    -20.1355    -10.4454
    10    23     -1.0583     -8.5354    -20.1355     -8.8967
    10    24     -2.7468    -22.1543    -20.1355     -7.7768
    10    25     -6.3235    -51.0023    -20.1355      0.0833
    10    26     -0.7237     -5.8372    -20.1355      0.9324
    10    27      7.3860     59.5720    -20.1355      1.8324
    10    28     -5.7722    -46.5561    -20.1355      2.7318
    10    29     16.7303    134.9388    -20.1355      3.1884
    10    30      9.0012     72.5996    -20.1355      3.8433
    10    31      6.6049     53.2725    -20.1355      3.9609
    10    32    -14.1122   -113.8224    -20.1355      4.0622
    10    33      7.9940     64.4759    -20.1355      4.2877
    10    34     20.5574    165.8065    -20.1355      4.3750
    10    35      3.5768     28.8485    -20.1355      5.4321
    10    36    -20.7809   -167.6095    -20.1355      5.4342
    10    37    -17.1789   -138.5575    -20.1355      5.6311
    10    38    -21.7122   -175.1210    -20.1355      6.3518
    10    39     15.0477    121.3676    -20.1355      7.2988
    10    40     -8.6061    -69.4131    -20.1355      8.5077
    10    41     -7.7745    -62.7055    -20.1355      8.6839
    10    42     10.1438     81.8152    -20.1355      9.3180
    10    43    -10.6163    -85.6266    -20.1355     10.2653
    10    44      6.5588     52.9004    -20.1355     10.6610
    10    45      8.4750     68.3552    -20.1355     12.1820
    10    46      8.0593     65.0030    -20.1355     12.8170
    10    47     -1.7613    -14.2056    -20.1355     13.4656
    10    48     -3.9944    -32.2171    -20.1355     14.4127
    11     1     -6.6612    -53.7263    -18.6056    -48.3720
    11     2      1.5982     12.8903    -18.6056    -42.7709
    11     3     15.8636    127.9486    -18.6056    -36.3934
    11     4      2.8430     22.9302    -18.6056    -33.2769
    11     5      4.0236     32.4529    -18.6056    -31.0876
    11     6     -0.9189     -7.4117    -18.6056    -27.1686
    11     7    -23.8896   -192.6824    -18.6056    -27.0268
    11     8     -7.7017    -62.1186    -18.6056    -26.1751
    11     9      3.2033     25.8365    -18.6056    -22.1900
    11    10      3.0577     24.6618    -18.6056    -20.1353
    11    11     -1.7794    -14.3516    -18.6056    -18.6053
    11    12     26.6676    215.0889    -18.6056    -16.4469
    11    13     -3.3155    -26.7417    -18.6056    -16.3045
    11    14     -3.0592    -24.6745    -18.6056    -15.5035
    11    15     -2.1012    -16.9473    -18.6056    -14.4321
    11    16      0.1669      1.3464    -18.6056    -14.1642
    11    17     -5.6516    -45.5836    -18.6056    -13.9646
    11    18      4.8417     39.0506    -18.6056    -12.8334
    11    19      4.6555     37.5489    -18.6056    -12.2143
    11    20     20.1274    162.3382    -18.6056    -11.3952
    11    21     -0.2131     -1.7192    -18.6056    -11.0568
    11    22     -3.6804    -29.6844    -18.6056    -10.4454
    11    23     -5.3722    -43.3300    -18.6056     -8.8967
    11    24     -7.7377    -62.4089    -18.6056     -7.7768
    11    25     -8.4019    -67.7660    -18.6056      0.0833
    11    26     -5.0025    -40.3477    -18.6056      0.9324
    11    27     -3.0487    -24.5894    -18.6056      1.8324
    11    28     -5.6930    -45.9173    -18.6056      2.7318
    11    29     -8.6727    -69.9499    -18.6056      3.1884
    11    30      4.2655     34.4037    -18.6056      3.8433
    11    31     -1.8422    -14.8580    -18.6056      3.9609
    11    32      7.7349     62.3860    -18.6056      4.0622
    11    33     -4.9245    -39.7191    -18.6056      4.2877
    11    34      9.1958     74.1690    -18.6056      4.3750
    11    35      3.8882     31.3608    -18.6056      5.4321
    11    36     12.6867    102.3255    -18.6056      5.4342
    11    37     -8.6730    -69.9524    -18.6056      5.6311
    11    38     12.8152    103.3619    -18.6056      6.3518
    11    39     -8.6203    -69.5271    -18.6056      7.2988
    11    40     -4.0535    -32.6938    -18.6056      8.5077
    11    41      1.9917     16.0639    -18.6056      8.6839
    11    42      6.8458     55.2153    -18.6056      9.3180
    11    43      3.4556     27.8711    -18.6056     10.2653
    11    44      6.1160     49.3286    -18.6056     10.6610
    11    45     -3.9768    -32.0748    -18.6056     12.1820
    11    46     -4.7670    -38.4488    -18.6056     12.8170
    11    47      2.9669     23.9296    -18.6056     13.4656
    11    48     -0.9657     -7.7891    -18.6056     14.4127
    12     1     -2.0934    -16.8845    -16.4460    -48.3720
    12     2     -0.9673     -7.8015    -16.4460    -42.7709
    12     3      1.4400     11.6146    -16.4460    -36.3934
    12     4     -0.7052     -5.6881    -16.4460    -33.2769
    12     5     -6.3224    -50.9939    -16.4460    -31.0876
    12     6      0.5714      4.6090    -16.4460    -27.1686
    12     7     -3.3331    -26.8830    -16.4460    -27.0268
    12     8     -0.7085     -5.7144    -16.4460    -26.1751
    12     9    -13.4903   -108.8064    -16.4460    -22.1900
    12    10      0.4192      3.3810    -16.4460    -20.1353
    12    11     -3.5423    -28.5706    -16.4460    -18.6053
    12    12      6.2811     50.6604    -16.4460    -16.4469
    12    13     -1.6490    -13.3002    -16.4460    -16.3045
    12    14      3.7088     29.9138    -16.4460    -15.5035
    12    15    -15.3605   -123.8908    -16.4460    -14.4321
    12    16      1.5856     12.7891    -16.4460    -14.1642
    12    17     -1.3771    -11.1069    -16.4460    -13.9646
    12    18      8.9855     72.4728    -16.4460    -12.8334
    12    19      5.4800     44.1991    -16.4460    -12.2143
    12    20      5.6807     45.8182    -16.4460    -11.3952
    12    21     -1.4788    -11.9271    -16.4460    -11.0568
    12    22      7.5892     61.2109    -16.4460    -10.4454
    12    23      2.6382     21.2789    -16.4460     -8.8967
    12    24     -7.3740    -59.4756    -16.4460     -7.7768
    12    25     -4.4779    -36.1166    -16.4460      0.0833
    12    26      2.4418     19.6942    -16.4460      0.9324
    12    27      6.7405     54.3654    -16.4460      1.8324
    12    28     -1.4765    -11.9088    -16.4460      2.7318
    12    29     -4.3964    -35.4592    -16.4460      3.1884
    12    30      3.9733     32.0466    -16.4460      3.8433
    12    31      4.2662     34.4090    -16.4460      3.9609
    12    32      4.6565     37.5576    -16.4460      4.0622
    12    33     -2.5825    -20.8292    -16.4460      4.2877
    12    34     10.3980     83.8659    -16.4460      4.3750
    12    35      2.6014     20.9818    -16.4460      5.4321
    12    36      4.0018     32.2770    -16.4460      5.4342
    12    37     -8.6170    -69.5010    -16.4460      5.6311
    12    38      4.4258     35.6964    -16.4460      6.3518
    12    39     -2.6091    -21.0441    -16.4460      7.2988
    12    40     -3.7534    -30.2733    -16.4460      8.5077
    12    41      2.6176     21.1123    -16.4460      8.6839
    12    42      3.9688     32.0106    -16.4460      9.3180
    12    43      2.8532     23.0130    -16.4460     10.2653
    12    44      0.3118      2.5150    -16.4460     10.6610
    12    45     -1.2160     -9.8076    -16.4460     12.1820
    12    46     -0.4932     -3.9779    -16.4460     12.8170
    12    47      1.8845     15.1993    -16.4460     13.4656
    12    48      2.1127     17.0404    -16.4460     14.4127
    13     1    -13.7866   -111.1965    -16.3043    -48.3720
    13     2     -3.0518    -24.6144    -16.3043    -42.7709
    13     3     24.7568    199.6774    -16.3043    -36.3934
    13     4      4.5131     36.4005    -16.3043    -33.2769
    13     5     -5.1232    -41.3211    -16.3043    -31.0876
    13     6     -1.3653    -11.0117    -16.3043    -27.1686
    13     7    -30.8198   -248.5783    -16.3043    -27.0268
    13     8    -12.3481    -99.5938    -16.3043    -26.1751
    13     9     -6.6866    -53.9308    -16.3043    -22.1900
    13    10      7.5244     60.6887    -16.3043    -20.1353
    13    11     -3.9072    -31.5135    -16.3043    -18.6053
    13    12     28.7171    231.6190    -16.3043    -16.4469
    13    13     -6.6474    -53.6145    -16.3043    -16.3045
    13    14    -10.4498    -84.2834    -16.3043    -15.5035
    13    15     -4.6767    -37.7198    -16.3043    -14.4321
    13    16     -2.8565    -23.0393    -16.3043    -14.1642
    13    17     -1.1830     -9.5415    -16.3043    -13.9646
    13    18      4.4884     36.2011    -16.3043    -12.8334
    13    19     -0.2795     -2.2546    -16.3043    -12.2143
    13    20     19.0242    153.4405    -16.3043    -11.3952
    13    21     -4.7546    -38.3486    -16.3043    -11.0568
    13    22    -12.5230   -101.0046    -16.3043    -10.4454
    13    23     -1.2005     -9.6830    -16.3043     -8.8967
    13    24      2.1569     17.3962    -16.3043     -7.7768
    13    25      4.2651     34.4004    -16.3043      0.0833
    13    26     -0.7978     -6.4344    -16.3043      0.9324
    13    27    -10.8028    -87.1306    -16.3043      1.8324
    13    28      4.0092     32.3360    -16.3043      2.7318
    13    29     -5.4621    -44.0548    -16.3043      3.1884
    13    30     -1.0459     -8.4360    -16.3043      3.8433
    13    31     -8.0149    -64.6448    -16.3043      3.9609
    13    32      4.2219     34.0522    -16.3043      4.0622
    13    33     -6.0348    -48.6736    -16.3043      4.2877
    13    34     -1.0903     -8.7935    -16.3043      4.3750
    13    35      1.8578     14.9845    -16.3043      5.4321
    13    36      9.0453     72.9553    -16.3043      5.4342
    13    37      0.3898      3.1438    -16.3043      5.6311
    13    38      6.6588     53.7065    -16.3043      6.3518
    13    39     -2.4277    -19.5804    -16.3043      7.2988
    13    40      2.3313     18.8029    -16.3043      8.5077
    13    41      1.3085     10.5541    -16.3043      8.6839
    13    42     -2.3546    -18.9912    -16.3043      9.3180
    13    43      2.7002     21.7786    -16.3043     10.2653
    13    44     -1.8761    -15.1316    -16.3043     10.6610
    13    45     -2.1685    -17.4898    -16.3043     12.1820
    13    46     -1.0601     -8.5499    -16.3043     12.8170
    13    47      2.0982     16.9233    -16.3043     13.4656
    13    48      2.6195     21.1274    -16.3043     14.4127
    14     1    222.7084   1796.2647    -15.5035    -48.3720
    14     2    171.7912   1385.5896    -15.5035    -42.7709
    14     3   -482.4898  -3891.5427    -15.5035    -36.3934
    14     4    -61.4840   -495.9020    -15.5035    -33.2769
    14     5    348.0018   2806.8240    -15.5035    -31.0876
    14     6    -66.3658   -535.2760    -15.5035    -27.1686
    14     7    620.6547   5005.9177    -15.5035    -27.0268
    14     8    186.5537   1504.6570    -15.5035    -26.1751
    14     9    419.8304   3386.1606    -15.5035    -22.1900
    14    10     32.2490    260.1059    -15.5035    -20.1353
    14    11      9.8720     79.6232    -15.5035    -18.6053
    14    12   -507.6860  -4094.7635    -15.5035    -16.4469
    14    13    148.3994   1196.9216    -15.5035    -16.3045
    14    14    219.4737   1770.1748    -15.5035    -15.5035
    14    15    338.3586   2729.0464    -15.5035    -14.4321
    14    16    -76.7427   -618.9716    -15.5035    -14.1642
    14    17    214.3236   1728.6364    -15.5035    -13.9646
    14    18   -109.4777   -882.9975    -15.5035    -12.8334
    14    19    154.3065   1244.5662    -15.5035    -12.2143
    14    20   -322.6745  -2602.5455    -15.5035    -11.3952
    14    21    -28.8234   -232.4763    -15.5035    -11.0568
    14    22    230.1284   1856.1105    -15.5035    -10.4454
    14    23     45.3996    366.1727    -15.5035     -8.8967
    14    24   -163.9126  -1322.0444    -15.5035     -7.7768
    14    25    -71.2622   -574.7682    -15.5035      0.0833
    14    26     41.5580    335.1875    -15.5035      0.9324
    14    27    115.4859    931.4564    -15.5035      1.8324
    14    28     -9.9286    -80.0797    -15.5035      2.7318
    14    29    126.8902   1023.4383    -15.5035      3.1884
    14    30    -17.3454   -139.9001    -15.5035      3.8433
    14    31     63.8099    514.6615    -15.5035      3.9609
    14    32   -135.1062  -1089.7052    -15.5035      4.0622
    14    33    100.9825    814.4790    -15.5035      4.2877
    14    34   -156.4582  -1261.9208    -15.5035      4.3750
    14    35    -88.8830   -716.8893    -15.5035      5.4321
    14    36   -197.4739  -1592.7346    -15.5035      5.4342
    14    37    152.7121   1231.7063    -15.5035      5.6311
    14    38   -190.8484  -1539.2965    -15.5035      6.3518
    14    39     97.2919    784.7122    -15.5035      7.2988
    14    40     24.2830    195.8559    -15.5035      8.5077
    14    41    -25.8407   -208.4197    -15.5035      8.6839
    14    42    -24.6325   -198.6742    -15.5035      9.3180
    14    43    -21.2352   -171.2733    -15.5035     10.2653
    14    44      7.0057     56.5045    -15.5035     10.6610
    14    45     -3.1669    -25.5425    -15.5035     12.1820
    14    46      1.4800     11.9373    -15.5035     12.8170
    14    47     -2.6087    -21.0409    -15.5035     13.4656
    14    48    -21.0192   -169.5311    -15.5035     14.4127
    15     1      3.8168     30.7847    -14.4316    -48.3720
    15     2     -1.0193     -8.2215    -14.4316    -42.7709
    15     3     -6.0849    -49.0777    -14.4316    -36.3934
    15     4     -0.7001     -5.6469    -14.4316    -33.2769
    15     5      1.0828      8.7332    -14.4316    -31.0876
    15     6      0.4111      3.3159    -14.4316    -27.1686
    15     7      7.3219     59.0549    -14.4316    -27.0268
    15     8      2.6740     21.5674    -14.4316    -26.1751
    15     9      3.9242     31.6511    -14.4316    -22.1900
    15    10     -1.5932    -12.8503    -14.4316    -20.1353
    15    11      3.0154     24.3208    -14.4316    -18.6053
    15    12     -8.9551    -72.2280    -14.4316    -16.4469
    15    13      0.6306      5.0859    -14.4316    -16.3045
    15    14      1.4933     12.0444    -14.4316    -15.5035
    15    15      6.9401     55.9754    -14.4316    -14.4321
    15    16     -0.5466     -4.4088    -14.4316    -14.1642
    15    17      0.9693      7.8183    -14.4316    -13.9646
    15    18     -6.7062    -54.0891    -14.4316    -12.8334
    15    19     -2.1362    -17.2299    -14.4316    -12.2143
    15    20     -7.6159    -61.4260    -14.4316    -11.3952
    15    21      1.1173      9.0113    -14.4316    -11.0568
    15    22      0.8212      6.6230    -14.4316    -10.4454
    15    23      2.4350     19.6396    -14.4316     -8.8967
    15    24      2.7974     22.5627    -14.4316     -7.7768
    15    25      4.4894     36.2093    -14.4316      0.0833
    15    26      2.9394     23.7079    -14.4316      0.9324
    15    27     -1.8952    -15.2855    -14.4316      1.8324
    15    28      3.7295     30.0806    -14.4316      2.7318
    15    29      4.1980     33.8592    -14.4316      3.1884
    15    30     -3.5249    -28.4304    -14.4316      3.8433
    15    31     -2.0848    -16.8150    -14.4316      3.9609
    15    32     -3.6462    -29.4089    -14.4316      4.0622
    15    33      2.1217     17.1124    -14.4316      4.2877
    15    34     -6.9034    -55.6794    -14.4316      4.3750
    15    35     -2.4972    -20.1416    -14.4316      5.4321
    15    36     -5.4078    -43.6170    -14.4316      5.4342
    15    37      5.9158     47.7143    -14.4316      5.6311
    15    38     -5.2174    -42.0811    -14.4316      6.3518
    15    39      2.9879     24.0993    -14.4316      7.2988
    15    40      1.8743     15.1170    -14.4316      8.5077
    15    41     -0.5034     -4.0603    -14.4316      8.6839
    15    42     -3.4650    -27.9467    -14.4316      9.3180
    15    43     -1.8462    -14.8902    -14.4316     10.2653
    15    44     -3.1360    -25.2938    -14.4316     10.6610
    15    45      2.7088     21.8478    -14.4316     12.1820
    15    46      1.8137     14.6281    -14.4316     12.8170
    15    47     -2.2745    -18.3451    -14.4316     13.4656
    15    48     -0.1351     -1.0895    -14.4316     14.4127
    16     1      8.2680     66.6860    -14.1650    -48.3720
    16     2     -3.3332    -26.8838    -14.1650    -42.7709
    16     3    -19.7453   -159.2568    -14.1650    -36.3934
    16     4      1.9555     15.7723    -14.1650    -33.2769
    16     5     -4.1317    -33.3247    -14.1650    -31.0876
    16     6      0.7394      5.9638    -14.1650    -27.1686
    16     7     27.3606    220.6779    -14.1650    -27.0268
    16     8      2.6923     21.7152    -14.1650    -26.1751
    16     9     -3.0418    -24.5337    -14.1650    -22.1900
    16    10      1.1494      9.2704    -14.1650    -20.1353
    16    11      1.7884     14.4247    -14.1650    -18.6053
    16    12    -29.6955   -239.5100    -14.1650    -16.4469
    16    13      1.9895     16.0463    -14.1650    -16.3045
    16    14      3.4932     28.1746    -14.1650    -15.5035
    16    15      0.2698      2.1761    -14.1650    -14.4321
    16    16     -2.6299    -21.2116    -14.1650    -14.1642
    16    17      8.6762     69.9785    -14.1650    -13.9646
    16    18     -2.5373    -20.4650    -14.1650    -12.8334
    16    19     -1.0420     -8.4041    -14.1650    -12.2143
    16    20    -22.7675   -183.6320    -14.1650    -11.3952
    16    21     -2.5118    -20.2594    -14.1650    -11.0568
    16    22      4.0532     32.6912    -14.1650    -10.4454
    16    23     -0.9636     -7.7719    -14.1650     -8.8967
    16    24     -0.6491     -5.2351    -14.1650     -7.7768
    16    25     -2.0014    -16.1427    -14.1650      0.0833
    16    26     -0.4921     -3.9687    -14.1650      0.9324
    16    27      2.4874     20.0620    -14.1650      1.8324
    16    28     -1.8754    -15.1261    -14.1650      2.7318
    16    29     10.7471     86.6808    -14.1650      3.1884
    16    30      0.3165      2.5530    -14.1650      3.8433
    16    31      1.7166     13.8451    -14.1650      3.9609
    16    32     -9.7820    -78.8974    -14.1650      4.0622
    16    33      4.7695     38.4690    -14.1650      4.2877
    16    34      1.7319     13.9684    -14.1650      4.3750
    16    35     -0.2365     -1.9076    -14.1650      5.4321
    16    36    -14.3057   -115.3833    -14.1650      5.4342
    16    37     -1.6484    -13.2953    -14.1650      5.6311
    16    38    -15.7615   -127.1252    -14.1650      6.3518
    16    39     11.5783     93.3851    -14.1650      7.2988
    16    40     -0.1330     -1.0729    -14.1650      8.5077
    16    41     -5.5587    -44.8338    -14.1650      8.6839
    16    42     -0.6158     -4.9669    -14.1650      9.3180
    16    43     -7.6399    -61.6201    -14.1650     10.2653
    16    44     -0.4322     -3.4862    -14.1650     10.6610
    16    45      6.4382     51.9273    -14.1650     12.1820
    16    46      5.6230     45.3529    -14.1650     12.8170
    16    47     -2.7327    -22.0406    -14.1650     13.4656
    16    48     -1.8391    -14.8330    -14.1650     14.4127
    17     1      4.8621     39.2157    -13.9644    -48.3720
    17     2     -3.6134    -29.1443    -13.9644    -42.7709
    17     3     -9.0240    -72.7832    -13.9644    -36.3934
    17     4     -2.6876    -21.6772    -13.9644    -33.2769
    17     5     -5.7604    -46.4604    -13.9644    -31.0876
    17     6     -0.0417     -0.3363    -13.9644    -27.1686
    17     7     12.4513    100.4264    -13.9644    -27.0268
    17     8      6.1830     49.8692    -13.9644    -26.1751
    17     9     -4.8642    -39.2326    -13.9644    -22.1900
    17    10     -1.3605    -10.9733    -13.9644    -20.1353
    17    11     -0.4702     -3.7927    -13.9644    -18.6053
    17    12    -11.1163    -89.6591    -13.9644    -16.4469
    17    13      5.0628     40.8343    -13.9644    -16.3045
    17    14      2.7660     22.3094    -13.9644    -15.5035
    17    15     -3.0653    -24.7231    -13.9644    -14.4321
    17    16     -0.0221     -0.1781    -13.9644    -14.1642
    17    17      2.8473     22.9651    -13.9644    -13.9646
    17    18      1.5093     12.1735    -13.9644    -12.8334
    17    19     -5.9468    -47.9645    -13.9644    -12.2143
    17    20     -6.9669    -56.1919    -13.9644    -11.3952
    17    21     -0.1382     -1.1145    -13.9644    -11.0568
    17    22      2.1292     17.1731    -13.9644    -10.4454
    17    23      0.3217      2.5948    -13.9644     -8.8967
    17    24      6.9692     56.2101    -13.9644     -7.7768
    17    25      3.3440     26.9715    -13.9644      0.0833
    17    26      0.1505      1.2137    -13.9644      0.9324
    17    27      1.8217     14.6927    -13.9644      1.8324
    17    28      0.3327      2.6832    -13.9644      2.7318
    17    29      2.6834     21.6432    -13.9644      3.1884
    17    30     -0.6482     -5.2283    -13.9644      3.8433
    17    31      1.6667     13.4430    -13.9644      3.9609
    17    32     -2.7291    -22.0113    -13.9644      4.0622
    17    33      2.7387     22.0892    -13.9644      4.2877
    17    34     -0.0470     -0.3787    -13.9644      4.3750
    17    35      1.0517      8.4822    -13.9644      5.4321
    17    36     -3.2167    -25.9441    -13.9644      5.4342
    17    37     -0.3092     -2.4940    -13.9644      5.6311
    17    38     -2.6976    -21.7577    -13.9644      6.3518
    17    39      0.9913      7.9952    -13.9644      7.2988
    17    40      0.8693      7.0114    -13.9644      8.5077
    17    41     -1.7133    -13.8186    -13.9644      8.6839
    17    42     -0.3166     -2.5537    -13.9644      9.3180
    17    43     -1.4515    -11.7070    -13.9644     10.2653
    17    44      0.9643      7.7774    -13.9644     10.6610
    17    45     -0.3305     -2.6653    -13.9644     12.1820
    17    46     -0.7016     -5.6591    -13.9644     12.8170
    17    47     -0.0449     -0.3619    -13.9644     13.4656
    17    48     -0.7098     -5.7248    -13.9644     14.4127
    18     1     -1.9165    -15.4579    -12.8332    -48.3720
    18     2      3.1888     25.7193    -12.8332    -42.7709
    18     3      5.3559     43.1979    -12.8332    -36.3934
    18     4      1.2756     10.2882    -12.8332    -33.2769
    18     5      6.8724     55.4293    -12.8332    -31.0876
    18     6     -0.7794     -6.2863    -12.8332    -27.1686
    18     7     -8.4859    -68.4436    -12.8332    -27.0268
    18     8     -2.6399    -21.2922    -12.8332    -26.1751
    18     9      7.4964     60.4627    -12.8332    -22.1900
    18    10      0.8007      6.4583    -12.8332    -20.1353
    18    11     -0.2923     -2.3577    -12.8332    -18.6053
    18    12      9.4073     75.8751    -12.8332    -16.4469
    18    13     -0.6616     -5.3365    -12.8332    -16.3045
    18    14     -1.2131     -9.7840    -12.8332    -15.5035
    18    15      3.9850     32.1414    -12.8332    -14.4321
    18    16     -0.2384     -1.9225    -12.8332    -14.1642
    18    17     -2.2107    -17.8307    -12.8332    -13.9646
    18    18      0.4649      3.7499    -12.8332    -12.8334
    18    19      2.7752     22.3838    -12.8332    -12.2143
    18    20      7.2010     58.0803    -12.8332    -11.3952
    18    21      0.3819      3.0800    -12.8332    -11.0568
    18    22     -2.0460    -16.5022    -12.8332    -10.4454
    18    23     -0.2252     -1.8164    -12.8332     -8.8967
    18    24     -2.7068    -21.8315    -12.8332     -7.7768
    18    25     -0.3318     -2.6758    -12.8332      0.0833
    18    26     -0.1460     -1.1773    -12.8332      0.9324
    18    27     -2.7588    -22.2514    -12.8332      1.8324
    18    28      0.7295      5.8836    -12.8332      2.7318
    18    29     -2.5566    -20.6207    -12.8332      3.1884
    18    30      0.3629      2.9269    -12.8332      3.8433
    18    31     -2.0988    -16.9281    -12.8332      3.9609
    18    32      2.0305     16.3770    -12.8332      4.0622
    18    33     -1.4160    -11.4207    -12.8332      4.2877
    18    34     -1.8304    -14.7628    -12.8332      4.3750
    18    35     -0.8223     -6.6319    -12.8332      5.4321
    18    36      3.4233     27.6111    -12.8332      5.4342
    18    37      2.0006     16.1358    -12.8332      5.6311
    18    38      3.2346     26.0888    -12.8332      6.3518
    18    39     -2.1165    -17.0710    -12.8332      7.2988
    18    40     -0.1895     -1.5286    -12.8332      8.5077
    18    41      1.7780     14.3402    -12.8332      8.6839
    18    42      0.8551      6.8970    -12.8332      9.3180
    18    43      3.2259     26.0188    -12.8332     10.2653
    18    44      0.4259      3.4348    -12.8332     10.6610
    18    45     -3.1403    -25.3286    -12.8332     12.1820
    18    46     -1.0008     -8.0717    -12.8332     12.8170
    18    47      2.8924     23.3286    -12.8332     13.4656
    18    48      1.9346     15.6033    -12.8332     14.4127
    19     1     57.3967    462.9360    -12.2146    -48.3720
    19     2    -64.2917   -518.5474    -12.2146    -42.7709
    19     3   -182.4275  -1471.3772    -12.2146    -36.3934
    19     4    143.4168   1156.7345    -12.2146    -33.2769
    19     5    -94.2871   -760.4768    -12.2146    -31.0876
    19     6    100.0496    806.9544    -12.2146    -27.1686
    19     7    249.1616   2009.6235    -12.2146    -27.0268
    19     8   -126.5434  -1020.6411    -12.2146    -26.1751
    19     9    -72.1838   -582.2014    -12.2146    -22.1900
    19    10    -32.1477   -259.2890    -12.2146    -20.1353
    19    11    112.7769    909.6074    -12.2146    -18.6053
    19    12   -310.6900  -2505.8840    -12.2146    -16.4469
    19    13   -109.6760   -884.5965    -12.2146    -16.3045
    19    14     21.5873    174.1137    -12.2146    -15.5035
    19    15    -25.3946   -204.8216    -12.2146    -14.4321
    19    16     33.4227    269.5724    -12.2146    -14.1642
    19    17    -18.5119   -149.3083    -12.2146    -13.9646
    19    18    -86.7454   -699.6488    -12.2146    -12.8334
    19    19    -72.4307   -584.1926    -12.2146    -12.2143
    19    20   -230.9055  -1862.3785    -12.2146    -11.3952
    19    21     53.2016    429.0999    -12.2146    -11.0568
    19    22     40.3987    325.8376    -12.2146    -10.4454
    19    23    -59.0444   -476.2254    -12.2146     -8.8967
    19    24     50.4971    407.2866    -12.2146     -7.7768
    19    25     -8.9652    -72.3095    -12.2146      0.0833
    19    26    -47.0012   -379.0900    -12.2146      0.9324
    19    27     52.6092    424.3217    -12.2146      1.8324
    19    28    -28.8325   -232.5498    -12.2146      2.7318
    19    29    120.1372    968.9721    -12.2146      3.1884
    19    30    -50.7888   -409.6396    -12.2146      3.8433
    19    31     41.6164    335.6592    -12.2146      3.9609
    19    32   -109.0912   -879.8799    -12.2146      4.0622
    19    33    -32.9076   -265.4179    -12.2146      4.2877
    19    34     -2.6382    -21.2782    -12.2146      4.3750
    19    35     52.1422    420.5553    -12.2146      5.4321
    19    36    -42.8795   -345.8462    -12.2146      5.4342
    19    37    -25.7238   -207.4765    -12.2146      5.6311
    19    38   -103.0037   -830.7806    -12.2146      6.3518
    19    39    101.3205    817.2048    -12.2146      7.2988
    19    40     24.0516    193.9890    -12.2146      8.5077
    19    41    -40.8425   -329.4172    -12.2146      8.6839
    19    42    -22.8161   -184.0241    -12.2146      9.3180
    19    43    -28.6821   -231.3371    -12.2146     10.2653
    19    44     -8.0559    -64.9750    -12.2146     10.6610
    19    45     17.4663    140.8752    -12.2146     12.1820
    19    46     27.0147    217.8884    -12.2146     12.8170
    19    47     -8.3684    -67.4961    -12.2146     13.4656
    19    48      0.5795      4.6742    -12.2146     14.4127
    20     1      5.6435     45.5182    -11.3945    -48.3720
    20     2      4.4543     35.9267    -11.3945    -42.7709
    20     3     -7.8182    -63.0580    -11.3945    -36.3934
    20     4      1.4389     11.6054    -11.3945    -33.2769
    20     5      8.4740     68.3473    -11.3945    -31.0876
    20     6      1.3236     10.6754    -11.3945    -27.1686
    20     7      8.6211     69.5337    -11.3945    -27.0268
    20     8      0.8159      6.5807    -11.3945    -26.1751
    20     9     10.4308     84.1305    -11.3945    -22.1900
    20    10     -2.0511    -16.5432    -11.3945    -20.1353
    20    11      3.3027     26.6382    -11.3945    -18.6053
    20    12     -8.4519    -68.1694    -11.3945    -16.4469
    20    13      0.0108      0.0869    -11.3945    -16.3045
    20    14      4.3981     35.4733    -11.3945    -15.5035
    20    15      8.2006     66.1421    -11.3945    -14.4321
    20    16      0.5537      4.4662    -11.3945    -14.1642
    20    17     -0.2125     -1.7143    -11.3945    -13.9646
    20    18     -5.1237    -41.3258    -11.3945    -12.8334
    20    19      2.0399     16.4525    -11.3945    -12.2143
    20    20     -5.9083    -47.6538    -11.3945    -11.3952
    20    21      2.2542     18.1811    -11.3945    -11.0568
    20    22      3.5300     28.4715    -11.3945    -10.4454
    20    23     -1.2416    -10.0141    -11.3945     -8.8967
    20    24     -2.8706    -23.1528    -11.3945     -7.7768
    20    25     -2.9427    -23.7347    -11.3945      0.0833
    20    26     -0.8288     -6.6848    -11.3945      0.9324
    20    27      2.3821     19.2131    -11.3945      1.8324
    20    28     -1.8478    -14.9034    -11.3945      2.7318
    20    29      1.9373     15.6253    -11.3945      3.1884
    20    30     -0.6273     -5.0597    -11.3945      3.8433
    20    31      1.8184     14.6665    -11.3945      3.9609
    20    32     -1.6907    -13.6361    -11.3945      4.0622
    20    33      0.4898      3.9507    -11.3945      4.2877
    20    34     -2.0617    -16.6287    -11.3945      4.3750
    20    35     -0.4909     -3.9595    -11.3945      5.4321
    20    36     -0.5698     -4.5961    -11.3945      5.4342
    20    37      1.5489     12.4928    -11.3945      5.6311
    20    38     -0.6961     -5.6144    -11.3945      6.3518
    20    39      0.3685      2.9720    -11.3945      7.2988
    20    40      0.2658      2.1439    -11.3945      8.5077
    20    41     -0.5232     -4.2200    -11.3945      8.6839
    20    42      0.0530      0.4273    -11.3945      9.3180
    20    43     -0.3838     -3.0953    -11.3945     10.2653
    20    44      1.2660     10.2112    -11.3945     10.6610
    20    45     -0.0640     -0.5163    -11.3945     12.1820
    20    46     -0.4316     -3.4810    -11.3945     12.8170
    20    47     -0.7974     -6.4316    -11.3945     13.4656
    20    48     -1.6209    -13.0738    -11.3945     14.4127
    21     1     -1.1574     -9.3348    -11.0573    -48.3720
    21     2      3.6572     29.4970    -11.0573    -42.7709
    21     3      1.5620     12.5983    -11.0573    -36.3934
    21     4      1.3700     11.0496    -11.0573    -33.2769
    21     5      6.2103     50.0891    -11.0573    -31.0876
    21     6      0.1107      0.8927    -11.0573    -27.1686
    21     7     -0.8739     -7.0485    -11.0573    -27.0268
    21     8     -2.7308    -22.0256    -11.0573    -26.1751
    21     9      8.0576     64.9887    -11.0573    -22.1900
    21    10      0.0091      0.0732    -11.0573    -20.1353
    21    11      2.7488     22.1709    -11.0573    -18.6053
    21    12     -1.7196    -13.8694    -11.0573    -16.4469
    21    13     -2.2611    -18.2373    -11.0573    -16.3045
    21    14     -1.7703    -14.2782    -11.0573    -15.5035
    21    15      7.6934     62.0512    -11.0573    -14.4321
    21    16     -0.5988     -4.8300    -11.0573    -14.1642
    21    17     -0.9906     -7.9899    -11.0573    -13.9646
    21    18     -5.0019    -40.3434    -11.0573    -12.8334
    21    19      2.5133     20.2710    -11.0573    -12.2143
    21    20     -2.1951    -17.7045    -11.0573    -11.3952
    21    21      1.2736     10.2723    -11.0573    -11.0568
    21    22     -2.2958    -18.5172    -11.0573    -10.4454
    21    23      0.6445      5.1985    -11.0573     -8.8967
    21    24     -1.7798    -14.3550    -11.0573     -7.7768
    21    25      0.3282      2.6467    -11.0573      0.0833
    21    26      0.3059      2.4673    -11.0573      0.9324
    21    27     -1.7882    -14.4226    -11.0573      1.8324
    21    28      0.9519      7.6775    -11.0573      2.7318
    21    29      1.9761     15.9384    -11.0573      3.1884
    21    30     -2.3146    -18.6685    -11.0573      3.8433
    21    31     -1.2016     -9.6913    -11.0573      3.9609
    21    32     -1.7194    -13.8682    -11.0573      4.0622
    21    33     -0.5174     -4.1733    -11.0573      4.2877
    21    34     -5.8320    -47.0383    -11.0573      4.3750
    21    35     -2.0453    -16.4966    -11.0573      5.4321
    21    36     -1.3543    -10.9236    -11.0573      5.4342
    21    37      5.1195     41.2912    -11.0573      5.6311
    21    38     -2.3800    -19.1963    -11.0573      6.3518
    21    39      2.3877     19.2578    -11.0573      7.2988
    21    40      2.3897     19.2744    -11.0573      8.5077
    21    41     -0.7557     -6.0950    -11.0573      8.6839
    21    42     -3.1246    -25.2020    -11.0573      9.3180
    21    43     -0.7999     -6.4513    -11.0573     10.2653
    21    44     -1.5699    -12.6620    -11.0573     10.6610
    21    45      0.9146      7.3764    -11.0573     12.1820
    21    46      1.3853     11.1730    -11.0573     12.8170
    21    47     -1.3522    -10.9062    -11.0573     13.4656
    21    48     -0.5883     -4.7452    -11.0573     14.4127
    22     1     -9.9877    -80.5559    -10.4458    -48.3720
    22     2     22.3917    180.6012    -10.4458    -42.7709
    22     3    -32.4078   -261.3868    -10.4458    -36.3934
    22     4    -33.3351   -268.8657    -10.4458    -33.2769
    22     5     96.6045    779.1677    -10.4458    -31.0876
    22     6    -21.5610   -173.9015    -10.4458    -27.1686
    22     7     94.9718    765.9992    -10.4458    -27.0268
    22     8     65.9803    532.1666    -10.4458    -26.1751
    22     9    160.0991   1291.2862    -10.4458    -22.1900
    22    10      3.5752     28.8363    -10.4458    -20.1353
    22    11     15.6584    126.2936    -10.4458    -18.6053
    22    12   -112.0311   -903.5916    -10.4458    -16.4469
    22    13     61.5690    496.5871    -10.4458    -16.3045
    22    14   -100.8324   -813.2682    -10.4458    -15.5035
    22    15    161.4238   1301.9704    -10.4458    -14.4321
    22    16    -40.5103   -326.7373    -10.4458    -14.1642
    22    17     60.1698    485.3023    -10.4458    -13.9646
    22    18    -67.1280   -541.4239    -10.4458    -12.8334
    22    19    -49.4828   -399.1055    -10.4458    -12.2143
    22    20    -85.4012   -688.8068    -10.4458    -11.3952
    22    21    -17.8868   -144.2671    -10.4458    -11.0568
    22    22    -98.3959   -793.6161    -10.4458    -10.4454
    22    23     -5.2346    -42.2199    -10.4458     -8.8967
    22    24     43.2702    348.9975    -10.4458     -7.7768
    22    25     16.0865    129.7463    -10.4458      0.0833
    22    26     -2.6147    -21.0890    -10.4458      0.9324
    22    27    -43.2379   -348.7375    -10.4458      1.8324
    22    28      0.8932      7.2044    -10.4458      2.7318
    22    29     43.6037    351.6872    -10.4458      3.1884
    22    30    -22.5571   -181.9349    -10.4458      3.8433
    22    31    -21.8395   -176.1472    -10.4458      3.9609
    22    32    -45.3762   -365.9835    -10.4458      4.0622
    22    33     52.1088    420.2855    -10.4458      4.2877
    22    34   -105.7289   -852.7615    -10.4458      4.3750
    22    35    -54.2780   -437.7815    -10.4458      5.4321
    22    36    -90.6479   -731.1248    -10.4458      5.4342
    22    37    101.7182    820.4128    -10.4458      5.6311
    22    38    -82.5323   -665.6683    -10.4458      6.3518
    22    39     48.2221    388.9374    -10.4458      7.2988
    22    40     25.9232    209.0845    -10.4458      8.5077
    22    41    -16.2898   -131.3863    -10.4458      8.6839
    22    42    -37.6557   -303.7140    -10.4458      9.3180
    22    43    -25.4247   -205.0643    -10.4458     10.2653
    22    44    -26.7515   -215.7654    -10.4458     10.6610
    22    45     22.0704    178.0101    -10.4458     12.1820
    22    46     30.0119    242.0623    -10.4458     12.8170
    22    47     -8.0998    -65.3289    -10.4458     13.4656
    22    48      3.6162     29.1665    -10.4458     14.4127
    23     1     11.6945     94.3223     -8.8967    -48.3720
    23     2     58.5169    471.9709     -8.8967    -42.7709
    23     3    -26.3467   -212.5003     -8.8967    -36.3934
    23     4      5.5461     44.7327     -8.8967    -33.2769
    23     5    155.7034   1255.8330     -8.8967    -31.0876
    23     6     66.8159    538.9069     -8.8967    -27.1686
    23     7     35.9867    290.2522     -8.8967    -27.0268
    23     8     26.3072    212.1819     -8.8967    -26.1751
    23     9    229.2760   1849.2358     -8.8967    -22.1900
    23    10    -68.7190   -554.2563     -8.8967    -20.1353
    23    11    131.3181   1059.1516     -8.8967    -18.6053
    23    12    -49.7424   -401.1991     -8.8967    -16.4469
    23    13      1.0968      8.8462     -8.8967    -16.3045
    23    14     34.4296    277.6937     -8.8967    -15.5035
    23    15    213.7407   1723.9352     -8.8967    -14.4321
    23    16    -13.0376   -105.1552     -8.8967    -14.1642
    23    17    -55.5030   -447.6620     -8.8967    -13.9646
    23    18   -166.1434  -1340.0366     -8.8967    -12.8334
    23    19     56.5244    455.8996     -8.8967    -12.2143
    23    20    -34.2062   -275.8916     -8.8967    -11.3952
    23    21     45.5861    367.6770     -8.8967    -11.0568
    23    22     45.1722    364.3381     -8.8967    -10.4454
    23    23     -3.6159    -29.1643     -8.8967     -8.8967
    23    24    -86.8968   -700.8702     -8.8967     -7.7768
    23    25    -78.8682   -636.1148     -8.8967      0.0833
    23    26      0.7207      5.8131     -8.8967      0.9324
    23    27     38.3328    309.1747     -8.8967      1.8324
    23    28    -44.2499   -356.8995     -8.8967      2.7318
    23    29     11.3888     91.8569     -8.8967      3.1884
    23    30    -63.8847   -515.2652     -8.8967      3.8433
    23    31     24.6974    199.1981     -8.8967      3.9609
    23    32    -10.9805    -88.5640     -8.8967      4.0622
    23    33      3.4770     28.0440     -8.8967      4.2877
    23    34   -102.2560   -824.7501     -8.8967      4.3750
    23    35      3.9354     31.7411     -8.8967      5.4321
    23    36     29.9722    241.7422     -8.8967      5.4342
    23    37     69.2908    558.8680     -8.8967      5.6311
    23    38     25.7576    207.7494     -8.8967      6.3518
    23    39    -21.2749   -171.5937     -8.8967      7.2988
    23    40     37.5790    303.0952     -8.8967      8.5077
    23    41    -18.4600   -148.8896     -8.8967      8.6839
    23    42    -31.2979   -252.4347     -8.8967      9.3180
    23    43    -16.2294   -130.8993     -8.8967     10.2653
    23    44      7.0603     56.9450     -8.8967     10.6610
    23    45     -4.1457    -33.4370     -8.8967     12.1820
    23    46    -21.3212   -171.9669     -8.8967     12.8170
    23    47     -6.0031    -48.4179     -8.8967     13.4656
    23    48    -16.3235   -131.6582     -8.8967     14.4127
    24     1     -8.5998    -69.3623     -7.7767    -48.3720
    24     2     13.6207    109.8587     -7.7767    -42.7709
    24     3     12.5113    100.9106     -7.7767    -36.3934
    24     4      6.0874     49.0984     -7.7767    -33.2769
    24     5     25.5962    206.4475     -7.7767    -31.0876
    24     6     32.6381    263.2443     -7.7767    -27.1686
    24     7      1.0049      8.1050     -7.7767    -27.0268
    24     8    -10.2205    -82.4339     -7.7767    -26.1751
    24     9     47.0844    379.7617     -7.7767    -22.1900
    24    10    -28.0766   -226.4531     -7.7767    -20.1353
    24    11     66.4069    535.6077     -7.7767    -18.6053
    24    12    -46.7337   -376.9330     -7.7767    -16.4469
    24    13    -23.7982   -191.9454     -7.7767    -16.3045
    24    14    -28.7981   -232.2723     -7.7767    -15.5035
    24    15     61.8516    498.8669     -7.7767    -14.4321
    24    16     -3.6144    -29.1518     -7.7767    -14.1642
    24    17    -33.2303   -268.0204     -7.7767    -13.9646
    24    18    -78.2153   -630.8490     -7.7767    -12.8334
    24    19     28.9217    233.2693     -7.7767    -12.2143
    24    20    -51.0625   -411.8472     -7.7767    -11.3952
    24    21     22.7872    183.7909     -7.7767    -11.0568
    24    22    -37.1913   -299.9682     -7.7767    -10.4454
    24    23     27.3120    220.2863     -7.7767     -8.8967
    24    24    -22.2699   -179.6192     -7.7767     -7.7768
    24    25     -1.9662    -15.8585     -7.7767      0.0833
    24    26     19.4444    156.8294     -7.7767      0.9324
    24    27    -27.0070   -217.8260     -7.7767      1.8324
    24    28      4.2742     34.4738     -7.7767      2.7318
    24    29     38.7715    312.7129     -7.7767      3.1884
    24    30    -43.9928   -354.8258     -7.7767      3.8433
    24    31    -17.4822   -141.0031     -7.7767      3.9609
    24    32    -32.7003   -263.7460     -7.7767      4.0622
    24    33     -8.2107    -66.2237     -7.7767      4.2877
    24    34    -45.7979   -369.3847     -7.7767      4.3750
    24    35     15.2386    122.9079     -7.7767      5.4321
    24    36     -5.7220    -46.1512     -7.7767      5.4342
    24    37     23.8114    192.0519     -7.7767      5.6311
    24    38    -26.4851   -213.6164     -7.7767      6.3518
    24    39     34.1402    275.3596     -7.7767      7.2988
    24    40     29.7066    239.5997     -7.7767      8.5077
    24    41    -29.8086   -240.4229     -7.7767      8.6839
    24    42    -30.1070   -242.8297     -7.7767      9.3180
    24    43    -29.4536   -237.5594     -7.7767     10.2653
    24    44     -8.4570    -68.2101     -7.7767     10.6610
    24    45     14.1587    114.1976     -7.7767     12.1820
    24    46     18.9049    152.4786     -7.7767     12.8170
    24    47     -4.2291    -34.1100     -7.7767     13.4656
    24    48     -1.8418    -14.8555     -7.7767     14.4127
    25     1     -2.2315    -17.9980      0.0831    -48.3720
    25     2     -6.7828    -54.7066      0.0831    -42.7709
    25     3      5.7661     46.5069      0.0831    -36.3934
    25     4    -16.2762   -131.2762      0.0831    -33.2769
    25     5    -31.7491   -256.0741      0.0831    -31.0876
    25     6    -13.8495   -111.7038      0.0831    -27.1686
    25     7     -3.9222    -31.6344      0.0831    -27.0268
    25     8     24.9070    200.8888      0.0831    -26.1751
    25     9    -66.5633   -536.8693      0.0831    -22.1900
    25    10    -12.1406    -97.9203      0.0831    -20.1353
    25    11    -50.0106   -403.3625      0.0831    -18.6053
    25    12      7.6885     62.0121      0.0831    -16.4469
    25    13     15.7728    127.2158      0.0831    -16.3045
    25    14     -3.1230    -25.1886      0.0831    -15.5035
    25    15    -84.5105   -681.6232      0.0831    -14.4321
    25    16     31.0778    250.6592      0.0831    -14.1642
    25    17     -2.8882    -23.2952      0.0831    -13.9646
    25    18     69.3329    559.2073      0.0831    -12.8334
    25    19      4.7325     38.1702      0.0831    -12.2143
    25    20      8.1158     65.4587      0.0831    -11.3952
    25    21      6.8049     54.8849      0.0831    -11.0568
    25    22     -4.9448    -39.8824      0.0831    -10.4454
    25    23     13.3819    107.9323      0.0831     -8.8967
    25    24      1.8424     14.8601      0.0831     -7.7768
    25    25      9.9790     80.4858      0.0831      0.0833
    25    26     11.2885     91.0481      0.0831      0.9324
    25    27     -2.2291    -17.9786      0.0831      1.8324
    25    28      9.6129     77.5330      0.0831      2.7318
    25    29     -2.1373    -17.2383      0.0831      3.1884
    25    30     29.5547    238.3750      0.0831      3.8433
    25    31     -0.4808     -3.8778      0.0831      3.9609
    25    32      0.1477      1.1915      0.0831      4.0622
    25    33      3.8750     31.2541      0.0831      4.2877
    25    34     52.2328    421.2860      0.0831      4.3750
    25    35     13.3215    107.4450      0.0831      5.4321
    25    36      4.1674     33.6121      0.0831      5.4342
    25    37    -40.6834   -328.1338      0.0831      5.6311
    25    38      4.8150     38.8353      0.0831      6.3518
    25    39     -5.3358    -43.0364      0.0831      7.2988
    25    40    -16.8256   -135.7078      0.0831      8.5077
    25    41     -2.6899    -21.6954      0.0831      8.6839
    25    42     24.3314    196.2457      0.0831      9.3180
    25    43     -0.3518     -2.8378      0.0831     10.2653
    25    44     21.2391    171.3050      0.0831     10.6610
    25    45     -5.4381    -43.8609      0.0831     12.1820
    25    46     -3.5778    -28.8571      0.0831     12.8170
    25    47      3.8750     31.2539      0.0831     13.4656
    25    48     -6.9421    -55.9918      0.0831     14.4127
    26     1      5.0425     40.6703      0.9323    -48.3720
    26     2     -6.8966    -55.6245      0.9323    -42.7709
    26     3    -24.0827   -194.2401      0.9323    -36.3934
    26     4      2.8619     23.0831      0.9323    -33.2769
    26     5     -2.9047    -23.4282      0.9323    -31.0876
    26     6      0.9638      7.7735      0.9323    -27.1686
    26     7     42.0101    338.8339      0.9323    -27.0268
    26     8      4.7236     38.0984      0.9323    -26.1751
    26     9      8.2540     66.5734      0.9323    -22.1900
    26    10     -8.4191    -67.9043      0.9323    -20.1353
    26    11      7.8807     63.5619      0.9323    -18.6053
    26    12    -51.0649   -411.8660      0.9323    -16.4469
    26    13      0.5936      4.7880      0.9323    -16.3045
    26    14     -4.2707    -34.4459      0.9323    -15.5035
    26    15     15.3990    124.2012      0.9323    -14.4321
    26    16      6.5306     52.6728      0.9323    -14.1642
    26    17      0.4511      3.6383      0.9323    -13.9646
    26    18    -16.9135   -136.4164      0.9323    -12.8334
    26    19    -21.4291   -172.8376      0.9323    -12.2143
    26    20    -37.7525   -304.4942      0.9323    -11.3952
    26    21     12.2194     98.5557      0.9323    -11.0568
    26    22     -4.7836    -38.5825      0.9323    -10.4454
    26    23      1.7843     14.3910      0.9323     -8.8967
    26    24     30.3125    244.4871      0.9323     -7.7768
    26    25     25.9062    208.9477      0.9323      0.0833
    26    26     -0.0267     -0.2153      0.9323      0.9324
    26    27     -2.6472    -21.3514      0.9323      1.8324
    26    28     13.1844    106.3392      0.9323      2.7318
    26    29     20.8683    168.3144      0.9323      3.1884
    26    30    -14.3082   -115.4035      0.9323      3.8433
    26    31     -1.2432    -10.0272      0.9323      3.9609
    26    32    -19.6035   -158.1132      0.9323      4.0622
    26    33      2.3003     18.5530      0.9323      4.2877
    26    34    -19.8691   -160.2553      0.9323      4.3750
    26    35      3.4776     28.0487      0.9323      5.4321
    26    36     -7.2605    -58.5598      0.9323      5.4342
    26    37     13.3585    107.7438      0.9323      5.6311
    26    38    -13.8416   -111.6399      0.9323      6.3518
    26    39     11.2844     91.0150      0.9323      7.2988
    26    40     14.8100    119.4504      0.9323      8.5077
    26    41    -11.8549    -95.6165      0.9323      8.6839
    26    42    -15.0318   -121.2393      0.9323      9.3180
    26    43    -10.5093    -84.7631      0.9323     10.2653
    26    44     -1.4862    -11.9869      0.9323     10.6610
    26    45      1.9095     15.4015      0.9323     12.1820
    26    46      0.6255      5.0449      0.9323     12.8170
    26    47     -5.0661    -40.8607      0.9323     13.4656
    26    48     -4.9820    -40.1829      0.9323     14.4127
    27     1     10.0773     81.2793      1.8327    -48.3720
    27     2      5.7729     46.5612      1.8327    -42.7709
    27     3    -35.7438   -288.2934      1.8327    -36.3934
    27     4     -4.4071    -35.5460      1.8327    -33.2769
    27     5     13.5636    109.3978      1.8327    -31.0876
    27     6     -0.9106     -7.3442      1.8327    -27.1686
    27     7     56.6247    456.7087      1.8327    -27.0268
    27     8     17.6329    142.2188      1.8327    -26.1751
    27     9     13.8572    111.7661      1.8327    -22.1900
    27    10     -8.0839    -65.2011      1.8327    -20.1353
    27    11     -0.5537     -4.4659      1.8327    -18.6053
    27    12    -57.1043   -460.5769      1.8327    -16.4469
    27    13     10.3424     83.4171      1.8327    -16.3045
    27    14     10.2953     83.0372      1.8327    -15.5035
    27    15      4.3948     35.4466      1.8327    -14.4321
    27    16      4.9641     40.0378      1.8327    -14.1642
    27    17      7.9986     64.5131      1.8327    -13.9646
    27    18      0.6300      5.0815      1.8327    -12.8334
    27    19     15.1959    122.5629      1.8327    -12.2143
    27    20    -38.7250   -312.3379      1.8327    -11.3952
    27    21      5.7397     46.2942      1.8327    -11.0568
    27    22     16.4809    132.9278      1.8327    -10.4454
    27    23      6.9048     55.6910      1.8327     -8.8967
    27    24    -21.9652   -177.1612      1.8327     -7.7768
    27    25    -15.9378   -128.5467      1.8327      0.0833
    27    26      7.2583     58.5422      1.8327      0.9324
    27    27     17.2593    139.2055      1.8327      1.8324
    27    28     -7.1712    -57.8395      1.8327      2.7318
    27    29     12.5220    100.9968      1.8327      3.1884
    27    30      6.7561     54.4916      1.8327      3.8433
    27    31     12.7124    102.5327      1.8327      3.9609
    27    32    -10.5783    -85.3198      1.8327      4.0622
    27    33      6.5976     53.2129      1.8327      4.2877
    27    34     13.0740    105.4490      1.8327      4.3750
    27    35      3.3141     26.7298      1.8327      5.4321
    27    36     -8.9919    -72.5243      1.8327      5.4342
    27    37    -11.8319    -95.4307      1.8327      5.6311
    27    38     -7.7283    -62.3330      1.8327      6.3518
    27    39      2.4791     19.9952      1.8327      7.2988
    27    40     -7.4130    -59.7896      1.8327      8.5077
    27    41     -4.2123    -33.9743      1.8327      8.6839
    27    42     11.1285     89.7573      1.8327      9.3180
    27    43     -4.6359    -37.3912      1.8327     10.2653
    27    44     11.6938     94.3168      1.8327     10.6610
    27    45      0.7163      5.7770      1.8327     12.1820
    27    46     -2.6240    -21.1639      1.8327     12.8170
    27    47     -0.6577     -5.3044      1.8327     13.4656
    27    48     -7.2909    -58.8052      1.8327     14.4127
    28     1      5.3352     43.0309      2.7319    -48.3720
    28     2     -0.8801     -7.0986      2.7319    -42.7709
    28     3    -13.7758   -111.1090      2.7319    -36.3934
    28     4     -2.4519    -19.7758      2.7319    -33.2769
    28     5     -3.6378    -29.3412      2.7319    -31.0876
    28     6     -2.5949    -20.9290      2.7319    -27.1686
    28     7     20.8611    168.2560      2.7319    -27.0268
    28     8      6.7161     54.1689      2.7319    -26.1751
    28     9     -5.0072    -40.3854      2.7319    -22.1900
    28    10     -0.7723     -6.2293      2.7319    -20.1353
    28    11     -4.3214    -34.8543      2.7319    -18.6053
    28    12    -21.3012   -171.8056      2.7319    -16.4469
    28    13      4.0735     32.8549      2.7319    -16.3045
    28    14      3.8660     31.1810      2.7319    -15.5035
    28    15     -2.0652    -16.6571      2.7319    -14.4321
    28    16      0.0425      0.3425      2.7319    -14.1642
    28    17      7.1479     57.6517      2.7319    -13.9646
    28    18      2.0741     16.7286      2.7319    -12.8334
    28    19     -5.9229    -47.7712      2.7319    -12.2143
    28    20    -15.1348   -122.0701      2.7319    -11.3952
    28    21     -1.7880    -14.4211      2.7319    -11.0568
    28    22      5.2535     42.3719      2.7319    -10.4454
    28    23      2.9996     24.1938      2.7319     -8.8967
    28    24      8.8315     71.2311      2.7319     -7.7768
    28    25      8.6108     69.4505      2.7319      0.0833
    28    26      3.0868     24.8970      2.7319      0.9324
    28    27      5.2885     42.6547      2.7319      1.8324
    28    28      5.6013     45.1775      2.7319      2.7318
    28    29      4.9418     39.8582      2.7319      3.1884
    28    30     -0.1623     -1.3088      2.7319      3.8433
    28    31      3.6812     29.6909      2.7319      3.9609
    28    32     -4.2439    -34.2291      2.7319      4.0622
    28    33      4.9250     39.7228      2.7319      4.2877
    28    34     -5.4658    -44.0847      2.7319      4.3750
    28    35     -5.7758    -46.5850      2.7319      5.4321
    28    36    -10.4851    -84.5680      2.7319      5.4342
    28    37      6.9757     56.2627      2.7319      5.6311
    28    38     -8.5877    -69.2648      2.7319      6.3518
    28    39      4.4324     35.7495      2.7319      7.2988
    28    40      1.7993     14.5124      2.7319      8.5077
    28    41      0.6010      4.8473      2.7319      8.6839
    28    42     -4.5522    -36.7158      2.7319      9.3180
    28    43     -0.6843     -5.5192      2.7319     10.2653
    28    44     -5.7339    -46.2470      2.7319     10.6610
    28    45      2.4508     19.7668      2.7319     12.1820
    28    46      2.5976     20.9507      2.7319     12.8170
    28    47     -2.1348    -17.2182      2.7319     13.4656
    28    48      1.7223     13.8916      2.7319     14.4127
    29     1     -0.7301     -5.8888      3.1883    -48.3720
    29     2     -0.3406     -2.7468      3.1883    -42.7709
    29     3     -0.8222     -6.6318      3.1883    -36.3934
    29     4     -1.2419    -10.0169      3.1883    -33.2769
    29     5      0.6893      5.5597      3.1883    -31.0876
    29     6      0.0068      0.0549      3.1883    -27.1686
    29     7      2.1524     17.3600      3.1883    -27.0268
    29     8      1.8430     14.8647      3.1883    -26.1751
    29     9      1.7980     14.5015      3.1883    -22.1900
    29    10     -0.1533     -1.2363      3.1883    -20.1353
    29    11      0.7623      6.1487      3.1883    -18.6053
    29    12     -1.8793    -15.1578      3.1883    -16.4469
    29    13      1.3272     10.7043      3.1883    -16.3045
    29    14     -2.0440    -16.4860      3.1883    -15.5035
    29    15      2.1061     16.9868      3.1883    -14.4321
    29    16     -0.3763     -3.0353      3.1883    -14.1642
    29    17      0.9106      7.3445      3.1883    -13.9646
    29    18     -1.4036    -11.3208      3.1883    -12.8334
    29    19     -1.3713    -11.0602      3.1883    -12.2143
    29    20     -1.1458     -9.2415      3.1883    -11.3952
    29    21      0.1075      0.8667      3.1883    -11.0568
    29    22     -1.4484    -11.6824      3.1883    -10.4454
    29    23      0.3151      2.5417      3.1883     -8.8967
    29    24      1.2573     10.1410      3.1883     -7.7768
    29    25      0.6676      5.3849      3.1883      0.0833
    29    26      0.1730      1.3956      3.1883      0.9324
    29    27     -0.7604     -6.1333      3.1883      1.8324
    29    28      0.1599      1.2901      3.1883      2.7318
    29    29      0.5950      4.7990      3.1883      3.1884
    29    30     -0.5538     -4.4666      3.1883      3.8433
    29    31     -0.5518     -4.4508      3.1883      3.9609
    29    32     -0.6803     -5.4873      3.1883      4.0622
    29    33      0.8267      6.6681      3.1883      4.2877
    29    34     -1.1648     -9.3951      3.1883      4.3750
    29    35     -0.3016     -2.4322      3.1883      5.4321
    29    36     -1.0605     -8.5537      3.1883      5.4342
    29    37      0.9158      7.3861      3.1883      5.6311
    29    38     -0.8612     -6.9461      3.1883      6.3518
    29    39      0.2108      1.7001      3.1883      7.2988
    29    40      0.3170      2.5564      3.1883      8.5077
    29    41     -0.2216     -1.7876      3.1883      8.6839
    29    42     -0.3761     -3.0332      3.1883      9.3180
    29    43     -0.3537     -2.8527      3.1883     10.2653
    29    44     -0.1826     -1.4729      3.1883     10.6610
    29    45      0.1617      1.3044      3.1883     12.1820
    29    46     -0.0454     -0.3665      3.1883     12.8170
    29    47     -0.1100     -0.8872      3.1883     13.4656
    29    48     -0.0314     -0.2536      3.1883     14.4127
    30     1     -0.3784     -3.0519      3.8432    -48.3720
    30     2      0.9240      7.4529      3.8432    -42.7709
    30     3      0.6070      4.8960      3.8432    -36.3934
    30     4      0.8066      6.5058      3.8432    -33.2769
    30     5      1.7913     14.4476      3.8432    -31.0876
    30     6     -0.6048     -4.8783      3.8432    -27.1686
    30     7     -0.5651     -4.5577      3.8432    -27.0268
    30     8     -1.1905     -9.6018      3.8432    -26.1751
    30     9      2.0066     16.1845      3.8432    -22.1900
    30    10      0.0975      0.7865      3.8432    -20.1353
    30    11     -0.2787     -2.2482      3.8432    -18.6053
    30    12     -0.3091     -2.4928      3.8432    -16.4469
    30    13     -0.7687     -6.1997      3.8432    -16.3045
    30    14     -0.7898     -6.3702      3.8432    -15.5035
    30    15      1.3680     11.0334      3.8432    -14.4321
    30    16     -0.1431     -1.1543      3.8432    -14.1642
    30    17     -0.4058     -3.2729      3.8432    -13.9646
    30    18     -0.1196     -0.9644      3.8432    -12.8334
    30    19      0.8160      6.5816      3.8432    -12.2143
    30    20     -0.5365     -4.3268      3.8432    -11.3952
    30    21      0.0170      0.1369      3.8432    -11.0568
    30    22     -0.9286     -7.4900      3.8432    -10.4454
    30    23     -0.5157     -4.1590      3.8432     -8.8967
    30    24     -0.8373     -6.7532      3.8432     -7.7768
    30    25     -0.3085     -2.4883      3.8432      0.0833
    30    26     -0.5156     -4.1583      3.8432      0.9324
    30    27     -0.4440     -3.5810      3.8432      1.8324
    30    28     -0.0589     -0.4753      3.8432      2.7318
    30    29      0.4616      3.7230      3.8432      3.1884
    30    30      0.0036      0.0287      3.8432      3.8433
    30    31     -0.1351     -1.0897      3.8432      3.9609
    30    32     -0.3422     -2.7597      3.8432      4.0622
    30    33     -0.2262     -1.8241      3.8432      4.2877
    30    34     -0.6111     -4.9287      3.8432      4.3750
    30    35     -0.3216     -2.5941      3.8432      5.4321
    30    36     -0.2367     -1.9092      3.8432      5.4342
    30    37      0.5918      4.7729      3.8432      5.6311
    30    38     -0.5669     -4.5722      3.8432      6.3518
    30    39      0.7284      5.8752      3.8432      7.2988
    30    40      0.1199      0.9675      3.8432      8.5077
    30    41     -0.4582     -3.6953      3.8432      8.6839
    30    42     -0.0247     -0.1996      3.8432      9.3180
    30    43     -0.4571     -3.6870      3.8432     10.2653
    30    44      0.1521      1.2272      3.8432     10.6610
    30    45      0.3342      2.6956      3.8432     12.1820
    30    46      0.4583      3.6961      3.8432     12.8170
    30    47      0.2187      1.7643      3.8432     13.4656
    30    48      0.0398      0.3212      3.8432     14.4127
    31     1     -0.0506     -0.4078      3.9610    -48.3720
    31     2     -1.2696    -10.2399      3.9610    -42.7709
    31     3     -1.0580     -8.5331      3.9610    -36.3934
    31     4     -0.6014     -4.8509      3.9610    -33.2769
    31     5     -5.1550    -41.5780      3.9610    -31.0876
    31     6      0.0611      0.4931      3.9610    -27.1686
    31     7      1.4248     11.4919      3.9610    -27.0268
    31     8      1.0306      8.3125      3.9610    -26.1751
    31     9     -9.4768    -76.4359      3.9610    -22.1900
    31    10     -0.2006     -1.6178      3.9610    -20.1353
    31    11     -2.9337    -23.6617      3.9610    -18.6053
    31    12     -0.0897     -0.7231      3.9610    -16.4469
    31    13      0.6284      5.0687      3.9610    -16.3045
    31    14      2.0270     16.3488      3.9610    -15.5035
    31    15    -10.3979    -83.8644      3.9610    -14.4321
    31    16      0.4647      3.7478      3.9610    -14.1642
    31    17      0.0216      0.1743      3.9610    -13.9646
    31    18      6.7703     54.6061      3.9610    -12.8334
    31    19      0.4773      3.8500      3.9610    -12.2143
    31    20      0.7717      6.2245      3.9610    -11.3952
    31    21     -1.6185    -13.0544      3.9610    -11.0568
    31    22      4.1766     33.6865      3.9610    -10.4454
    31    23      1.2078      9.7418      3.9610     -8.8967
    31    24     -1.5426    -12.4415      3.9610     -7.7768
    31    25     -1.8421    -14.8572      3.9610      0.0833
    31    26      1.2542     10.1157      3.9610      0.9324
    31    27      5.3772     43.3698      3.9610      1.8324
    31    28     -1.2249     -9.8796      3.9610      2.7318
    31    29     -1.7346    -13.9908      3.9610      3.1884
    31    30      2.2722     18.3262      3.9610      3.8433
    31    31      4.1233     33.2563      3.9610      3.9609
    31    32      1.9227     15.5073      3.9610      4.0622
    31    33     -0.6325     -5.1013      3.9610      4.2877
    31    34      5.4208     43.7217      3.9610      4.3750
    31    35      1.3464     10.8594      3.9610      5.4321
    31    36      1.5517     12.5151      3.9610      5.4342
    31    37     -4.1790    -33.7060      3.9610      5.6311
    31    38      1.8954     15.2871      3.9610      6.3518
    31    39     -1.1188     -9.0237      3.9610      7.2988
    31    40     -1.2662    -10.2125      3.9610      8.5077
    31    41      0.8161      6.5824      3.9610      8.6839
    31    42      1.3412     10.8172      3.9610      9.3180
    31    43      1.1537      9.3055      3.9610     10.2653
    31    44     -0.0207     -0.1666      3.9610     10.6610
    31    45     -0.9957     -8.0312      3.9610     12.1820
    31    46     -0.3329     -2.6851      3.9610     12.8170
    31    47      1.0157      8.1920      3.9610     13.4656
    31    48      1.1424      9.2140      3.9610     14.4127
    32     1     -1.6059    -12.9527      4.0620    -48.3720
    32     2     -3.0131    -24.3020      4.0620    -42.7709
    32     3     -0.7410     -5.9765      4.0620    -36.3934
    32     4     -0.4500     -3.6293      4.0620    -33.2769
    32     5     -3.9868    -32.1560      4.0620    -31.0876
    32     6     -0.7492     -6.0423      4.0620    -27.1686
    32     7      3.1998     25.8081      4.0620    -27.0268
    32     8      0.8869      7.1531      4.0620    -26.1751
    32     9     -3.7234    -30.0310      4.0620    -22.1900
    32    10      0.9067      7.3132      4.0620    -20.1353
    32    11     -1.5664    -12.6341      4.0620    -18.6053
    32    12     -3.3086    -26.6860      4.0620    -16.4469
    32    13      1.3569     10.9441      4.0620    -16.3045
    32    14      0.0972      0.7842      4.0620    -15.5035
    32    15     -2.9677    -23.9362      4.0620    -14.4321
    32    16      0.3477      2.8045      4.0620    -14.1642
    32    17      2.0309     16.3800      4.0620    -13.9646
    32    18      2.1886     17.6520      4.0620    -12.8334
    32    19      0.4601      3.7106      4.0620    -12.2143
    32    20     -2.1489    -17.3319      4.0620    -11.3952
    32    21     -0.2675     -2.1577      4.0620    -11.0568
    32    22      0.8696      7.0135      4.0620    -10.4454
    32    23      0.9935      8.0133      4.0620     -8.8967
    32    24     -0.5760     -4.6454      4.0620     -7.7768
    32    25      0.0315      0.2539      4.0620      0.0833
    32    26      0.7828      6.3139      4.0620      0.9324
    32    27      0.5341      4.3080      4.0620      1.8324
    32    28      0.2234      1.8017      4.0620      2.7318
    32    29      1.5547     12.5392      4.0620      3.1884
    32    30      0.5395      4.3514      4.0620      3.8433
    32    31      0.2216      1.7875      4.0620      3.9609
    32    32     -1.7462    -14.0840      4.0620      4.0622
    32    33      0.6827      5.5067      4.0620      4.2877
    32    34      1.7276     13.9340      4.0620      4.3750
    32    35      0.9903      7.9874      4.0620      5.4321
    32    36     -1.4157    -11.4183      4.0620      5.4342
    32    37     -1.7185    -13.8607      4.0620      5.6311
    32    38     -1.6678    -13.4517      4.0620      6.3518
    32    39      0.8445      6.8115      4.0620      7.2988
    32    40     -1.0181     -8.2118      4.0620      8.5077
    32    41     -0.2554     -2.0601      4.0620      8.6839
    32    42      1.7050     13.7517      4.0620      9.3180
    32    43      0.2548      2.0551      4.0620     10.2653
    32    44      1.3430     10.8322      4.0620     10.6610
    32    45     -0.7572     -6.1072      4.0620     12.1820
    32    46     -0.0798     -0.6437      4.0620     12.8170
    32    47      0.8175      6.5937      4.0620     13.4656
    32    48      0.0214      0.1727      4.0620     14.4127
    33     1     -1.6684    -13.4565      4.2877    -48.3720
    33     2      1.1348      9.1525      4.2877    -42.7709
    33     3      0.4118      3.3212      4.2877    -36.3934
    33     4      0.3518      2.8376      4.2877    -33.2769
    33     5      3.2821     26.4722      4.2877    -31.0876
    33     6     -0.6438     -5.1925      4.2877    -27.1686
    33     7      1.1517      9.2894      4.2877    -27.0268
    33     8     -0.0062     -0.0500      4.2877    -26.1751
    33     9      4.2229     34.0600      4.2877    -22.1900
    33    10     -0.1059     -0.8540      4.2877    -20.1353
    33    11     -0.2356     -1.9004      4.2877    -18.6053
    33    12     -2.2022    -17.7615      4.2877    -16.4469
    33    13      0.0120      0.0968      4.2877    -16.3045
    33    14     -3.6854    -29.7250      4.2877    -15.5035
    33    15      3.5062     28.2791      4.2877    -14.4321
    33    16     -0.3532     -2.8489      4.2877    -14.1642
    33    17      0.5456      4.4005      4.2877    -13.9646
    33    18     -1.0013     -8.0764      4.2877    -12.8334
    33    19     -0.3361     -2.7106      4.2877    -12.2143
    33    20     -1.8126    -14.6197      4.2877    -11.3952
    33    21     -0.0308     -0.2487      4.2877    -11.0568
    33    22     -3.4630    -27.9311      4.2877    -10.4454
    33    23     -1.0209     -8.2339      4.2877     -8.8967
    33    24      0.0963      0.7768      4.2877     -7.7768
    33    25      0.1160      0.9357      4.2877      0.0833
    33    26     -0.6921     -5.5819      4.2877      0.9324
    33    27     -1.7529    -14.1382      4.2877      1.8324
    33    28      0.2261      1.8235      4.2877      2.7318
    33    29      1.0332      8.3335      4.2877      3.1884
    33    30     -0.0925     -0.7459      4.2877      3.8433
    33    31     -1.0260     -8.2751      4.2877      3.9609
    33    32     -1.0444     -8.4240      4.2877      4.0622
    33    33      0.4503      3.6322      4.2877      4.2877
    33    34     -1.3470    -10.8641      4.2877      4.3750
    33    35     -0.5615     -4.5286      4.2877      5.4321
    33    36     -0.8841     -7.1306      4.2877      5.4342
    33    37      1.1653      9.3989      4.2877      5.6311
    33    38     -1.0172     -8.2043      4.2877      6.3518
    33    39      0.4873      3.9300      4.2877      7.2988
    33    40     -0.1452     -1.1715      4.2877      8.5077
    33    41     -0.5290     -4.2668      4.2877      8.6839
    33    42      0.3442      2.7761      4.2877      9.3180
    33    43     -0.8272     -6.6720      4.2877     10.2653
    33    44      0.6290      5.0732      4.2877     10.6610
    33    45      0.6365      5.1340      4.2877     12.1820
    33    46     -0.0902     -0.7277      4.2877     12.8170
    33    47     -0.0113     -0.0908      4.2877     13.4656
    33    48     -0.5130     -4.1380      4.2877     14.4127
    34     1     -1.5825    -12.7640      4.3749    -48.3720
    34     2      1.9788     15.9599      4.3749    -42.7709
    34     3      3.9613     31.9499      4.3749    -36.3934
    34     4     -3.0457    -24.5656      4.3749    -33.2769
    34     5      1.4351     11.5748      4.3749    -31.0876
    34     6     -2.6210    -21.1395      4.3749    -27.1686
    34     7     -5.0046    -40.3649      4.3749    -27.0268
    34     8      3.4094     27.4983      4.3749    -26.1751
    34     9     -1.0752     -8.6718      4.3749    -22.1900
    34    10      0.3798      3.0633      4.3749    -20.1353
    34    11     -4.9988    -40.3181      4.3749    -18.6053
    34    12      6.4167     51.7538      4.3749    -16.4469
    34    13      3.6347     29.3157      4.3749    -16.3045
    34    14     -1.4992    -12.0922      4.3749    -15.5035
    34    15     -4.1066    -33.1216      4.3749    -14.4321
    34    16      0.6085      4.9081      4.3749    -14.1642
    34    17      0.5967      4.8124      4.3749    -13.9646
    34    18      6.3657     51.3430      4.3749    -12.8334
    34    19      3.1601     25.4883      4.3749    -12.2143
    34    20      4.9313     39.7736      4.3749    -11.3952
    34    21     -1.0278     -8.2894      4.3749    -11.0568
    34    22     -2.3468    -18.9279      4.3749    -10.4454
    34    23      2.8370     22.8817      4.3749     -8.8967
    34    24     -1.1405     -9.1986      4.3749     -7.7768
    34    25      1.9498     15.7262      4.3749      0.0833
    34    26      2.1121     17.0351      4.3749      0.9324
    34    27     -2.6065    -21.0232      4.3749      1.8324
    34    28      2.4101     19.4390      4.3749      2.7318
    34    29     -1.5579    -12.5651      4.3749      3.1884
    34    30      2.4184     19.5053      4.3749      3.8433
    34    31     -2.0183    -16.2787      4.3749      3.9609
    34    32      0.9218      7.4351      4.3749      4.0622
    34    33      0.7159      5.7743      4.3749      4.2877
    34    34      2.5286     20.3943      4.3749      4.3750
    34    35      0.6647      5.3610      4.3749      5.4321
    34    36      0.6799      5.4840      4.3749      5.4342
    34    37     -1.5701    -12.6638      4.3749      5.6311
    34    38      0.4457      3.5950      4.3749      6.3518
    34    39      0.2397      1.9335      4.3749      7.2988
    34    40     -0.4574     -3.6896      4.3749      8.5077
    34    41     -0.6070     -4.8962      4.3749      8.6839
    34    42      1.4376     11.5952      4.3749      9.3180
    34    43      0.4937      3.9823      4.3749     10.2653
    34    44      1.7834     14.3841      4.3749     10.6610
    34    45     -2.0882    -16.8427      4.3749     12.1820
    34    46      0.6838      5.5153      4.3749     12.8170
    34    47      2.1696     17.4992      4.3749     13.4656
    34    48      0.5608      4.5229      4.3749     14.4127
    35     1      3.5716     28.8070      5.4317    -48.3720
    35     2     -6.0642    -48.9112      5.4317    -42.7709
    35     3     -9.2671    -74.7439      5.4317    -36.3934
    35     4      5.3426     43.0911      5.4317    -33.2769
    35     5     -8.0095    -64.6012      5.4317    -31.0876
    35     6      6.1527     49.6246      5.4317    -27.1686
    35     7     11.5390     93.0683      5.4317    -27.0268
    35     8     -3.6311    -29.2865      5.4317    -26.1751
    35     9     -6.2931    -50.7572      5.4317    -22.1900
    35    10     -1.6454    -13.2709      5.4317    -20.1353
    35    11      6.2666     50.5437      5.4317    -18.6053
    35    12    -12.5302   -101.0628      5.4317    -16.4469
    35    13     -3.8866    -31.3472      5.4317    -16.3045
    35    14      0.9478      7.6447      5.4317    -15.5035
    35    15     -1.8482    -14.9067      5.4317    -14.4321
    35    16      0.4971      4.0090      5.4317    -14.1642
    35    17      0.3288      2.6517      5.4317    -13.9646
    35    18     -4.9890    -40.2394      5.4317    -12.8334
    35    19     -5.8788    -47.4154      5.4317    -12.2143
    35    20     -8.8157    -71.1035      5.4317    -11.3952
    35    21      0.9673      7.8022      5.4317    -11.0568
    35    22      2.1655     17.4659      5.4317    -10.4454
    35    23     -3.3402    -26.9406      5.4317     -8.8967
    35    24      3.6562     29.4894      5.4317     -7.7768
    35    25     -1.1897     -9.5958      5.4317      0.0833
    35    26     -2.3318    -18.8073      5.4317      0.9324
    35    27      2.8039     22.6152      5.4317      1.8324
    35    28     -2.4357    -19.6451      5.4317      2.7318
    35    29      3.5072     28.2876      5.4317      3.1884
    35    30     -2.2755    -18.3529      5.4317      3.8433
    35    31      2.0991     16.9305      5.4317      3.9609
    35    32     -3.1775    -25.6280      5.4317      4.0622
    35    33     -0.4805     -3.8751      5.4317      4.2877
    35    34      0.1556      1.2548      5.4317      4.3750
    35    35      1.5418     12.4354      5.4317      5.4321
    35    36     -2.4388    -19.6702      5.4317      5.4342
    35    37     -1.2773    -10.3019      5.4317      5.6311
    35    38     -3.1882    -25.7144      5.4317      6.3518
    35    39      1.9391     15.6403      5.4317      7.2988
    35    40     -0.8295     -6.6902      5.4317      8.5077
    35    41      1.0833      8.7378      5.4317      8.6839
    35    42      0.2088      1.6844      5.4317      9.3180
    35    43      0.8749      7.0565      5.4317     10.2653
    35    44     -2.2807    -18.3954      5.4317     10.6610
    35    45      0.8387      6.7643      5.4317     12.1820
    35    46      0.1810      1.4597      5.4317     12.8170
    35    47      0.4803      3.8738      5.4317     13.4656
    35    48      2.2819     18.4051      5.4317     14.4127
    36     1     11.3977     91.9289      5.4339    -48.3720
    36     2      2.3168     18.6862      5.4339    -42.7709
    36     3    -20.0083   -161.3779      5.4339    -36.3934
    36     4     -4.4167    -35.6233      5.4339    -33.2769
    36     5      5.0214     40.5000      5.4339    -31.0876
    36     6     -3.9791    -32.0937      5.4339    -27.1686
    36     7     24.0158    193.7009      5.4339    -27.0268
    36     8      8.2770     66.7582      5.4339    -26.1751
    36     9      7.3651     59.4035      5.4339    -22.1900
    36    10      3.6805     29.6851      5.4339    -20.1353
    36    11     -1.4961    -12.0671      5.4339    -18.6053
    36    12    -16.5226   -133.2634      5.4339    -16.4469
    36    13      7.1489     57.6598      5.4339    -16.3045
    36    14     11.1566     89.9838      5.4339    -15.5035
    36    15      6.4021     51.6366      5.4339    -14.4321
    36    16     -3.6885    -29.7496      5.4339    -14.1642
    36    17      9.7126     78.3375      5.4339    -13.9646
    36    18     -0.6856     -5.5299      5.4339    -12.8334
    36    19      4.6336     37.3728      5.4339    -12.2143
    36    20     -9.2129    -74.3067      5.4339    -11.3952
    36    21     -2.6103    -21.0533      5.4339    -11.0568
    36    22      9.7160     78.3651      5.4339    -10.4454
    36    23      3.1246     25.2016      5.4339     -8.8967
    36    24     -3.4607    -27.9128      5.4339     -7.7768
    36    25     -0.1465     -1.1817      5.4339      0.0833
    36    26      2.4400     19.6803      5.4339      0.9324
    36    27      3.1518     25.4213      5.4339      1.8324
    36    28      0.9154      7.3831      5.4339      2.7318
    36    29      3.2824     26.4742      5.4339      3.1884
    36    30     -0.6107     -4.9257      5.4339      3.8433
    36    31      1.2843     10.3582      5.4339      3.9609
    36    32     -3.9407    -31.7839      5.4339      4.0622
    36    33      2.7846     22.4590      5.4339      4.2877
    36    34     -2.1320    -17.1955      5.4339      4.3750
    36    35     -0.0369     -0.2973      5.4339      5.4321
    36    36     -4.1954    -33.8384      5.4339      5.4342
    36    37      1.4114     11.3836      5.4339      5.6311
    36    38     -3.7726    -30.4285      5.4339      6.3518
    36    39      0.9470      7.6384      5.4339      7.2988
    36    40      0.6660      5.3716      5.4339      8.5077
    36    41     -0.8799     -7.0969      5.4339      8.6839
    36    42      0.2728      2.2004      5.4339      9.3180
    36    43      0.0123      0.0993      5.4339     10.2653
    36    44      1.3147     10.6040      5.4339     10.6610
    36    45     -1.9936    -16.0797      5.4339     12.1820
    36    46     -2.6181    -21.1165      5.4339     12.8170
    36    47      1.9270     15.5425      5.4339     13.4656
    36    48      0.3070      2.4761      5.4339     14.4127
    37     1      1.5189     12.2509      5.6310    -48.3720
    37     2     -2.0108    -16.2185      5.6310    -42.7709
    37     3     -2.1564    -17.3925      5.6310    -36.3934
    37     4     -0.5251     -4.2353      5.6310    -33.2769
    37     5     -1.6421    -13.2441      5.6310    -31.0876
    37     6     -0.1085     -0.8747      5.6310    -27.1686
    37     7      1.5897     12.8214      5.6310    -27.0268
    37     8      1.7500     14.1145      5.6310    -26.1751
    37     9     -1.4387    -11.6037      5.6310    -22.1900
    37    10      0.3771      3.0413      5.6310    -20.1353
    37    11     -0.9199     -7.4197      5.6310    -18.6053
    37    12      0.3369      2.7170      5.6310    -16.4469
    37    13      1.7086     13.7806      5.6310    -16.3045
    37    14      2.4487     19.7498      5.6310    -15.5035
    37    15     -1.1596     -9.3532      5.6310    -14.4321
    37    16     -0.3175     -2.5607      5.6310    -14.1642
    37    17      1.3047     10.5227      5.6310    -13.9646
    37    18      1.2200      9.8400      5.6310    -12.8334
    37    19     -2.9869    -24.0912      5.6310    -12.2143
    37    20      0.8923      7.1967      5.6310    -11.3952
    37    21     -0.7401     -5.9693      5.6310    -11.0568
    37    22      2.9428     23.7354      5.6310    -10.4454
    37    23     -1.5277    -12.3218      5.6310     -8.8967
    37    24      1.7433     14.0603      5.6310     -7.7768
    37    25     -0.2407     -1.9414      5.6310      0.0833
    37    26     -0.7979     -6.4358      5.6310      0.9324
    37    27      1.7907     14.4429      5.6310      1.8324
    37    28     -0.7264     -5.8585      5.6310      2.7318
    37    29     -0.5633     -4.5430      5.6310      3.1884
    37    30      0.0873      0.7041      5.6310      3.8433
    37    31      1.0425      8.4085      5.6310      3.9609
    37    32      0.1986      1.6021      5.6310      4.0622
    37    33      0.4414      3.5604      5.6310      4.2877
    37    34     -0.0518     -0.4179      5.6310      4.3750
    37    35      0.1759      1.4187      5.6310      5.4321
    37    36      0.0020      0.0161      5.6310      5.4342
    37    37      0.1825      1.4718      5.6310      5.6311
    37    38      0.0559      0.4509      5.6310      6.3518
    37    39     -0.2112     -1.7037      5.6310      7.2988
    37    40      0.6555      5.2873      5.6310      8.5077
    37    41     -0.1054     -0.8502      5.6310      8.6839
    37    42     -0.6463     -5.2130      5.6310      9.3180
    37    43      0.1942      1.5661      5.6310     10.2653
    37    44     -0.3085     -2.4879      5.6310     10.6610
    37    45     -0.6210     -5.0089      5.6310     12.1820
    37    46     -0.4551     -3.6708      5.6310     12.8170
    37    47      0.2674      2.1563      5.6310     13.4656
    37    48      0.3573      2.8822      5.6310     14.4127
    38     1     -2.9343    -23.6671      6.3516    -48.3720
    38     2      0.7294      5.8827      6.3516    -42.7709
    38     3      0.9965      8.0375      6.3516    -36.3934
    38     4     -0.2990     -2.4115      6.3516    -33.2769
    38     5      2.9063     23.4407      6.3516    -31.0876
    38     6     -0.9265     -7.4725      6.3516    -27.1686
    38     7      0.8687      7.0064      6.3516    -27.0268
    38     8      0.9837      7.9344      6.3516    -26.1751
    38     9      3.3768     27.2361      6.3516    -22.1900
    38    10      0.2021      1.6304      6.3516    -20.1353
    38    11     -1.0234     -8.2544      6.3516    -18.6053
    38    12     -1.1044     -8.9080      6.3516    -16.4469
    38    13      1.1602      9.3579      6.3516    -16.3045
    38    14     -6.0561    -48.8458      6.3516    -15.5035
    38    15      2.1020     16.9542      6.3516    -14.4321
    38    16     -0.1036     -0.8356      6.3516    -14.1642
    38    17      1.0941      8.8249      6.3516    -13.9646
    38    18      0.3235      2.6096      6.3516    -12.8334
    38    19     -1.8317    -14.7735      6.3516    -12.2143
    38    20     -0.6651     -5.3648      6.3516    -11.3952
    38    21     -0.1633     -1.3169      6.3516    -11.0568
    38    22     -4.4144    -35.6047      6.3516    -10.4454
    38    23     -0.4690     -3.7825      6.3516     -8.8967
    38    24      0.9477      7.6441      6.3516     -7.7768
    38    25     -0.0091     -0.0732      6.3516      0.0833
    38    26     -0.2487     -2.0057      6.3516      0.9324
    38    27     -0.9629     -7.7662      6.3516      1.8324
    38    28     -0.2174     -1.7537      6.3516      2.7318
    38    29      0.1966      1.5860      6.3516      3.1884
    38    30      0.5039      4.0642      6.3516      3.8433
    38    31     -0.2706     -2.1826      6.3516      3.9609
    38    32     -0.2655     -2.1417      6.3516      4.0622
    38    33      0.4302      3.4697      6.3516      4.2877
    38    34     -0.3150     -2.5407      6.3516      4.3750
    38    35     -0.3070     -2.4761      6.3516      5.4321
    38    36     -0.1158     -0.9343      6.3516      5.4342
    38    37      0.4411      3.5576      6.3516      5.6311
    38    38     -0.1140     -0.9194      6.3516      6.3518
    38    39      0.1772      1.4293      6.3516      7.2988
    38    40      0.0012      0.0096      6.3516      8.5077
    38    41     -0.3325     -2.6816      6.3516      8.6839
    38    42      0.3557      2.8688      6.3516      9.3180
    38    43     -0.0225     -0.1817      6.3516     10.2653
    38    44      1.0341      8.3409      6.3516     10.6610
    38    45     -0.3783     -3.0513      6.3516     12.1820
    38    46      0.2054      1.6564      6.3516     12.8170
    38    47     -0.2607     -2.1029      6.3516     13.4656
    38    48     -0.9121     -7.3570      6.3516     14.4127
    39     1      2.3065     18.6032      7.2983    -48.3720
    39     2      1.6185     13.0538      7.2983    -42.7709
    39     3     -7.5533    -60.9219      7.2983    -36.3934
    39     4     -1.0115     -8.1579      7.2983    -33.2769
    39     5      8.1106     65.4167      7.2983    -31.0876
    39     6     -2.3619    -19.0497      7.2983    -27.1686
    39     7     12.3061     99.2557      7.2983    -27.0268
    39     8      4.1097     33.1468      7.2983    -26.1751
    39     9     13.5629    109.3919      7.2983    -22.1900
    39    10      1.0073      8.1245      7.2983    -20.1353
    39    11      0.0030      0.0242      7.2983    -18.6053
    39    12    -10.1494    -81.8601      7.2983    -16.4469
    39    13      4.3169     34.8184      7.2983    -16.3045
    39    14      8.9641     72.3004      7.2983    -15.5035
    39    15     12.1785     98.2259      7.2983    -14.4321
    39    16     -1.9725    -15.9094      7.2983    -14.1642
    39    17      5.0368     40.6249      7.2983    -13.9646
    39    18     -3.9533    -31.8851      7.2983    -12.8334
    39    19      7.6238     61.4901      7.2983    -12.2143
    39    20     -5.9646    -48.1079      7.2983    -11.3952
    39    21     -0.1797     -1.4497      7.2983    -11.0568
    39    22      8.5272     68.7763      7.2983    -10.4454
    39    23      1.5261     12.3092      7.2983     -8.8967
    39    24     -8.3057    -66.9903      7.2983     -7.7768
    39    25     -4.3811    -35.3363      7.2983      0.0833
    39    26      1.5870     12.7997      7.2983      0.9324
    39    27      3.9093     31.5305      7.2983      1.8324
    39    28     -1.1270     -9.0900      7.2983      2.7318
    39    29      2.4631     19.8661      7.2983      3.1884
    39    30     -1.0761     -8.6793      7.2983      3.8433
    39    31      2.0376     16.4347      7.2983      3.9609
    39    32     -3.2025    -25.8299      7.2983      4.0622
    39    33      1.8508     14.9276      7.2983      4.2877
    39    34     -3.6305    -29.2822      7.2983      4.3750
    39    35      0.3004      2.4226      7.2983      5.4321
    39    36     -0.2866     -2.3118      7.2983      5.4342
    39    37      2.1662     17.4714      7.2983      5.6311
    39    38      0.0767      0.6187      7.2983      6.3518
    39    39     -1.9529    -15.7508      7.2983      7.2988
    39    40     -1.1540     -9.3079      7.2983      8.5077
    39    41     -0.0617     -0.4978      7.2983      8.6839
    39    42      3.2494     26.2080      7.2983      9.3180
    39    43      1.2112      9.7689      7.2983     10.2653
    39    44      4.4198     35.6477      7.2983     10.6610
    39    45     -2.9874    -24.0950      7.2983     12.1820
    39    46     -3.8460    -31.0197      7.2983     12.8170
    39    47      1.8932     15.2701      7.2983     13.4656
    39    48     -1.4654    -11.8190      7.2983     14.4127
    40     1      0.2676      2.1584      8.5075    -48.3720
    40     2     -0.6894     -5.5608      8.5075    -42.7709
    40     3     -0.3782     -3.0503      8.5075    -36.3934
    40     4     -1.0019     -8.0811      8.5075    -33.2769
    40     5     -0.9720     -7.8396      8.5075    -31.0876
    40     6      0.6747      5.4419      8.5075    -27.1686
    40     7      0.5086      4.1024      8.5075    -27.0268
    40     8      1.1711      9.4458      8.5075    -26.1751
    40     9     -0.4893     -3.9462      8.5075    -22.1900
    40    10     -0.5511     -4.4451      8.5075    -20.1353
    40    11      0.9102      7.3410      8.5075    -18.6053
    40    12     -0.2316     -1.8680      8.5075    -16.4469
    40    13      0.3145      2.5370      8.5075    -16.3045
    40    14     -0.1107     -0.8931      8.5075    -15.5035
    40    15      0.2565      2.0691      8.5075    -14.4321
    40    16     -0.2772     -2.2360      8.5075    -14.1642
    40    17     -0.1002     -0.8085      8.5075    -13.9646
    40    18     -0.9184     -7.4075      8.5075    -12.8334
    40    19     -0.0777     -0.6269      8.5075    -12.2143
    40    20     -0.0948     -0.7643      8.5075    -11.3952
    40    21     -0.1030     -0.8305      8.5075    -11.0568
    40    22     -0.1677     -1.3523      8.5075    -10.4454
    40    23      0.5893      4.7532      8.5075     -8.8967
    40    24      0.2553      2.0588      8.5075     -7.7768
    40    25      0.2855      2.3024      8.5075      0.0833
    40    26      0.5077      4.0949      8.5075      0.9324
    40    27     -0.3079     -2.4836      8.5075      1.8324
    40    28      0.2376      1.9160      8.5075      2.7318
    40    29      0.0223      0.1797      8.5075      3.1884
    40    30     -0.4721     -3.8081      8.5075      3.8433
    40    31     -0.3287     -2.6514      8.5075      3.9609
    40    32     -0.0712     -0.5747      8.5075      4.0622
    40    33      0.3995      3.2222      8.5075      4.2877
    40    34     -0.1079     -0.8705      8.5075      4.3750
    40    35      0.3624      2.9233      8.5075      5.4321
    40    36     -0.3602     -2.9053      8.5075      5.4342
    40    37     -0.2001     -1.6140      8.5075      5.6311
    40    38     -0.0883     -0.7125      8.5075      6.3518
    40    39     -0.3959     -3.1934      8.5075      7.2988
    40    40     -0.2559     -2.0641      8.5075      8.5077
    40    41     -0.1998     -1.6119      8.5075      8.6839
    40    42      0.3383      2.7289      8.5075      9.3180
    40    43     -0.6339     -5.1125      8.5075     10.2653
    40    44     -0.1577     -1.2718      8.5075     10.6610
    40    45      0.6765      5.4561      8.5075     12.1820
    40    46     -0.4252     -3.4291      8.5075     12.8170
    40    47      0.4528      3.6523      8.5075     13.4656
    40    48      0.5558      4.4827      8.5075     14.4127
    41     1     -0.0092     -0.0740      8.6838    -48.3720
    41     2     -1.3888    -11.2014      8.6838    -42.7709
    41     3     -0.0537     -0.4329      8.6838    -36.3934
    41     4     -1.6897    -13.6281      8.6838    -33.2769
    41     5     -1.5130    -12.2030      8.6838    -31.0876
    41     6      0.2364      1.9068      8.6838    -27.1686
    41     7      0.0529      0.4269      8.6838    -27.0268
    41     8      1.7804     14.3601      8.6838    -26.1751
    41     9     -0.6719     -5.4191      8.6838    -22.1900
    41    10     -0.5175     -4.1742      8.6838    -20.1353
    41    11      0.5519      4.4514      8.6838    -18.6053
    41    12      0.7083      5.7130      8.6838    -16.4469
    41    13      0.9586      7.7320      8.6838    -16.3045
    41    14     -0.4447     -3.5867      8.6838    -15.5035
    41    15     -0.0280     -0.2255      8.6838    -14.4321
    41    16     -0.3971     -3.2028      8.6838    -14.1642
    41    17     -0.2427     -1.9576      8.6838    -13.9646
    41    18     -0.2885     -2.3273      8.6838    -12.8334
    41    19     -0.7578     -6.1121      8.6838    -12.2143
    41    20      0.8644      6.9721      8.6838    -11.3952
    41    21     -0.2158     -1.7402      8.6838    -11.0568
    41    22     -0.5391     -4.3480      8.6838    -10.4454
    41    23      0.2595      2.0930      8.6838     -8.8967
    41    24      0.9214      7.4313      8.6838     -7.7768
    41    25      0.5069      4.0886      8.6838      0.0833
    41    26      0.0819      0.6605      8.6838      0.9324
    41    27     -0.6884     -5.5527      8.6838      1.8324
    41    28      0.0911      0.7345      8.6838      2.7318
    41    29     -0.5873     -4.7369      8.6838      3.1884
    41    30      0.0212      0.1709      8.6838      3.8433
    41    31     -0.5351     -4.3155      8.6838      3.9609
    41    32      0.4860      3.9199      8.6838      4.0622
    41    33      0.6277      5.0626      8.6838      4.2877
    41    34      0.9082      7.3254      8.6838      4.3750
    41    35      0.6942      5.5990      8.6838      5.4321
    41    36      0.1808      1.4583      8.6838      5.4342
    41    37     -1.1655     -9.4005      8.6838      5.6311
    41    38      0.8980      7.2428      8.6838      6.3518
    41    39     -1.5579    -12.5650      8.6838      7.2988
    41    40     -1.0761     -8.6791      8.6838      8.5077
    41    41      0.0088      0.0713      8.6838      8.6839
    41    42      1.4026     11.3128      8.6838      9.3180
    41    43     -0.7100     -5.7263      8.6838     10.2653
    41    44      0.4701      3.7919      8.6838     10.6610
    41    45      0.6161      4.9690      8.6838     12.1820
    41    46     -1.2597    -10.1600      8.6838     12.8170
    41    47      1.0454      8.4315      8.6838     13.4656
    41    48      0.6342      5.1153      8.6838     14.4127
    42     1     -0.5292     -4.2686      9.3177    -48.3720
    42     2      0.6206      5.0055      9.3177    -42.7709
    42     3      0.9766      7.8771      9.3177    -36.3934
    42     4     -1.7583    -14.1819      9.3177    -33.2769
    42     5      0.7111      5.7354      9.3177    -31.0876
    42     6      0.7315      5.8997      9.3177    -27.1686
    42     7     -0.8743     -7.0519      9.3177    -27.0268
    42     8      1.6458     13.2740      9.3177    -26.1751
    42     9      1.4005     11.2961      9.3177    -22.1900
    42    10     -1.4207    -11.4586      9.3177    -20.1353
    42    11      1.4848     11.9754      9.3177    -18.6053
    42    12      1.1956      9.6433      9.3177    -16.4469
    42    13      0.0746      0.6019      9.3177    -16.3045
    42    14     -0.5381     -4.3401      9.3177    -15.5035
    42    15      2.2186     17.8942      9.3177    -14.4321
    42    16     -0.0447     -0.3609      9.3177    -14.1642
    42    17     -1.1663     -9.4071      9.3177    -13.9646
    42    18     -2.3474    -18.9329      9.3177    -12.8334
    42    19      0.4616      3.7234      9.3177    -12.2143
    42    20      1.0920      8.8074      9.3177    -11.3952
    42    21      0.5386      4.3439      9.3177    -11.0568
    42    22     -0.4179     -3.3709      9.3177    -10.4454
    42    23     -0.1218     -0.9823      9.3177     -8.8967
    42    24     -0.8514     -6.8666      9.3177     -7.7768
    42    25     -1.3934    -11.2388      9.3177      0.0833
    42    26     -0.2282     -1.8403      9.3177      0.9324
    42    27      0.1462      1.1796      9.3177      1.8324
    42    28     -1.1144     -8.9884      9.3177      2.7318
    42    29     -0.6462     -5.2118      9.3177      3.1884
    42    30     -1.4271    -11.5101      9.3177      3.8433
    42    31      0.1810      1.4595      9.3177      3.9609
    42    32      0.4850      3.9119      9.3177      4.0622
    42    33      0.6739      5.4352      9.3177      4.2877
    42    34     -2.7708    -22.3482      9.3177      4.3750
    42    35     -0.8513     -6.8663      9.3177      5.4321
    42    36      0.3512      2.8330      9.3177      5.4342
    42    37      2.4040     19.3895      9.3177      5.6311
    42    38      1.3041     10.5186      9.3177      6.3518
    42    39     -2.3366    -18.8460      9.3177      7.2988
    42    40      1.2912     10.4143      9.3177      8.5077
    42    41     -0.0207     -0.1667      9.3177      8.6839
    42    42     -1.8035    -14.5460      9.3177      9.3180
    42    43     -1.0597     -8.5470      9.3177     10.2653
    42    44     -1.2957    -10.4507      9.3177     10.6610
    42    45      1.3777     11.1120      9.3177     12.1820
    42    46     -1.8940    -15.2761      9.3177     12.8170
    42    47     -1.0212     -8.2369      9.3177     13.4656
    42    48     -0.0842     -0.6788      9.3177     14.4127
    43     1      1.7367     14.0073     10.2653    -48.3720
    43     2      1.8705     15.0865     10.2653    -42.7709
    43     3      0.9880      7.9690     10.2653    -36.3934
    43     4      2.3252     18.7540     10.2653    -33.2769
    43     5     -1.6240    -13.0986     10.2653    -31.0876
    43     6      1.9574     15.7875     10.2653    -27.1686
    43     7     -3.9641    -31.9727     10.2653    -27.0268
    43     8     -1.9723    -15.9076     10.2653    -26.1751
    43     9     -7.4710    -60.2574     10.2653    -22.1900
    43    10     -2.9254    -23.5951     10.2653    -20.1353
    43    11     -2.3525    -18.9740     10.2653    -18.6053
    43    12      2.3365     18.8452     10.2653    -16.4469
    43    13     -2.1053    -16.9806     10.2653    -16.3045
    43    14     -2.1731    -17.5274     10.2653    -15.5035
    43    15    -10.5107    -84.7744     10.2653    -14.4321
    43    16      5.5927     45.1080     10.2653    -14.1642
    43    17     -3.7709    -30.4144     10.2653    -13.9646
    43    18      5.9397     47.9070     10.2653    -12.8334
    43    19     -4.4780    -36.1178     10.2653    -12.2143
    43    20      0.9386      7.5703     10.2653    -11.3952
    43    21      3.1481     25.3915     10.2653    -11.0568
    43    22     -2.2702    -18.3105     10.2653    -10.4454
    43    23     -1.6237    -13.0957     10.2653     -8.8967
    43    24      5.1673     41.6774     10.2653     -7.7768
    43    25      2.8614     23.0785     10.2653      0.0833
    43    26     -1.4872    -11.9953     10.2653      0.9324
    43    27     -0.4389     -3.5399     10.2653      1.8324
    43    28      0.8086      6.5222     10.2653      2.7318
    43    29      0.1458      1.1764     10.2653      3.1884
    43    30      3.6747     29.6383     10.2653      3.8433
    43    31      0.2311      1.8638     10.2653      3.9609
    43    32      0.1652      1.3327     10.2653      4.0622
    43    33     -0.4038     -3.2566     10.2653      4.2877
    43    34      5.2227     42.1242     10.2653      4.3750
    43    35     -0.6665     -5.3753     10.2653      5.4321
    43    36     -1.7779    -14.3395     10.2653      5.4342
    43    37     -2.8951    -23.3505     10.2653      5.6311
    43    38     -2.6581    -21.4394     10.2653      6.3518
    43    39      3.5099     28.3094     10.2653      7.2988
    43    40     -1.8401    -14.8412     10.2653      8.5077
    43    41      0.5002      4.0345     10.2653      8.6839
    43    42      1.6120     13.0018     10.2653      9.3180
    43    43      1.2071      9.7360     10.2653     10.2653
    43    44      1.0445      8.4241     10.2653     10.6610
    43    45     -0.0805     -0.6494     10.2653     12.1820
    43    46      4.2570     34.3346     10.2653     12.8170
    43    47     -2.1635    -17.4495     10.2653     13.4656
    43    48     -1.8052    -14.5596     10.2653     14.4127
    44     1     -0.7096     -5.7232     10.6611    -48.3720
    44     2      2.3479     18.9372     10.6611    -42.7709
    44     3     -0.6144     -4.9551     10.6611    -36.3934
    44     4      0.4361      3.5172     10.6611    -33.2769
    44     5      0.7899      6.3710     10.6611    -31.0876
    44     6     -0.2730     -2.2017     10.6611    -27.1686
    44     7      2.3999     19.3566     10.6611    -27.0268
    44     8     -1.5178    -12.2417     10.6611    -26.1751
    44     9     -0.8609     -6.9439     10.6611    -22.1900
    44    10      0.6551      5.2834     10.6611    -20.1353
    44    11     -0.4751     -3.8323     10.6611    -18.6053
    44    12     -2.8796    -23.2259     10.6611    -16.4469
    44    13     -1.4208    -11.4597     10.6611    -16.3045
    44    14     -0.3860     -3.1131     10.6611    -15.5035
    44    15     -1.1853     -9.5601     10.6611    -14.4321
    44    16      1.2469     10.0566     10.6611    -14.1642
    44    17      0.8809      7.1052     10.6611    -13.9646
    44    18      0.3600      2.9038     10.6611    -12.8334
    44    19      1.7776     14.3371     10.6611    -12.2143
    44    20     -1.8682    -15.0682     10.6611    -11.3952
    44    21      0.9204      7.4233     10.6611    -11.0568
    44    22     -1.0331     -8.3322     10.6611    -10.4454
    44    23      2.2097     17.8228     10.6611     -8.8967
    44    24     -0.3328     -2.6844     10.6611     -7.7768
    44    25      2.1109     17.0258     10.6611      0.0833
    44    26      1.8176     14.6599     10.6611      0.9324
    44    27     -1.7985    -14.5057     10.6611      1.8324
    44    28      2.2881     18.4544     10.6611      2.7318
    44    29      0.2704      2.1810     10.6611      3.1884
    44    30      0.7230      5.8314     10.6611      3.8433
    44    31     -1.5297    -12.3381     10.6611      3.9609
    44    32     -0.1740     -1.4035     10.6611      4.0622
    44    33     -0.3525     -2.8428     10.6611      4.2877
    44    34     -0.5061     -4.0818     10.6611      4.3750
    44    35     -2.2166    -17.8784     10.6611      5.4321
    44    36     -0.4522     -3.6468     10.6611      5.4342
    44    37      1.3911     11.2197     10.6611      5.6311
    44    38      0.2771      2.2353     10.6611      6.3518
    44    39     -1.3105    -10.5700     10.6611      7.2988
    44    40     -0.7107     -5.7326     10.6611      8.5077
    44    41      2.8250     22.7854     10.6611      8.6839
    44    42     -0.4009     -3.2331     10.6611      9.3180
    44    43      2.4778     19.9849     10.6611     10.2653
    44    44     -0.7757     -6.2564     10.6611     10.6610
    44    45     -0.1156     -0.9326     10.6611     12.1820
    44    46     -1.1056     -8.9172     10.6611     12.8170
    44    47     -3.3957    -27.3884     10.6611     13.4656
    44    48     -2.2488    -18.1380     10.6611     14.4127
    45     1     -2.1651    -17.4625     12.1821    -48.3720
    45     2     -0.0478     -0.3855     12.1821    -42.7709
    45     3     -0.4237     -3.4171     12.1821    -36.3934
    45     4      0.4149      3.3468     12.1821    -33.2769
    45     5      0.0194      0.1561     12.1821    -31.0876
    45     6     -0.2714     -2.1890     12.1821    -27.1686
    45     7      2.4954     20.1265     12.1821    -27.0268
    45     8     -0.0395     -0.3184     12.1821    -26.1751
    45     9     -1.1286     -9.1026     12.1821    -22.1900
    45    10      0.5935      4.7871     12.1821    -20.1353
    45    11     -1.3929    -11.2346     12.1821    -18.6053
    45    12     -1.5090    -12.1707     12.1821    -16.4469
    45    13      0.2671      2.1543     12.1821    -16.3045
    45    14     -3.7935    -30.5970     12.1821    -15.5035
    45    15     -2.2766    -18.3621     12.1821    -14.4321
    45    16      1.0854      8.7542     12.1821    -14.1642
    45    17      0.8598      6.9351     12.1821    -13.9646
    45    18      2.1612     17.4313     12.1821    -12.8334
    45    19     -1.6773    -13.5281     12.1821    -12.2143
    45    20      0.0551      0.4441     12.1821    -11.3952
    45    21      0.7090      5.7186     12.1821    -11.0568
    45    22     -3.6933    -29.7886     12.1821    -10.4454
    45    23     -1.4391    -11.6069     12.1821     -8.8967
    45    24      0.8016      6.4657     12.1821     -7.7768
    45    25     -1.2067     -9.7326     12.1821      0.0833
    45    26     -1.2338     -9.9516     12.1821      0.9324
    45    27     -1.3380    -10.7914     12.1821      1.8324
    45    28     -1.5392    -12.4147     12.1821      2.7318
    45    29     -0.1990     -1.6053     12.1821      3.1884
    45    30      0.5974      4.8182     12.1821      3.8433
    45    31     -0.4385     -3.5366     12.1821      3.9609
    45    32     -0.3646     -2.9410     12.1821      4.0622
    45    33     -0.7629     -6.1533     12.1821      4.2877
    45    34      0.9551      7.7035     12.1821      4.3750
    45    35      0.9330      7.5253     12.1821      5.4321
    45    36      2.9024     23.4097     12.1821      5.4342
    45    37     -0.6041     -4.8724     12.1821      5.6311
    45    38      2.4674     19.9010     12.1821      6.3518
    45    39     -2.6598    -21.4526     12.1821      7.2988
    45    40      1.4410     11.6221     12.1821      8.5077
    45    41      0.1674      1.3504     12.1821      8.6839
    45    42     -1.0910     -8.7996     12.1821      9.3180
    45    43      0.9790      7.8958     12.1821     10.2653
    45    44      1.3336     10.7565     12.1821     10.6610
    45    45     -2.4877    -20.0650     12.1821     12.1820
    45    46     -3.7500    -30.2461     12.1821     12.8170
    45    47     -0.5068     -4.0874     12.1821     13.4656
    45    48     -1.6417    -13.2411     12.1821     14.4127
    46     1      4.8648     39.2375     12.8160    -48.3720
    46     2      1.4934     12.0447     12.8160    -42.7709
    46     3      0.4728      3.8131     12.8160    -36.3934
    46     4      1.4069     11.3476     12.8160    -33.2769
    46     5     -2.7611    -22.2700     12.8160    -31.0876
    46     6      2.4295     19.5949     12.8160    -27.1686
    46     7     -6.9388    -55.9651     12.8160    -27.0268
    46     8     -3.7186    -29.9929     12.8160    -26.1751
    46     9     -6.0675    -48.9376     12.8160    -22.1900
    46    10      0.4956      3.9976     12.8160    -20.1353
    46    11      2.8262     22.7949     12.8160    -18.6053
    46    12      6.3787     51.4478     12.8160    -16.4469
    46    13     -3.3719    -27.1960     12.8160    -16.3045
    46    14     12.8196    103.3968     12.8160    -15.5035
    46    15     -4.5176    -36.4371     12.8160    -14.4321
    46    16     -2.7685    -22.3297     12.8160    -14.1642
    46    17     -2.1819    -17.5979     12.8160    -13.9646
    46    18     -0.3050     -2.4601     12.8160    -12.8334
    46    19     11.9966     96.7590     12.8160    -12.2143
    46    20      2.6448     21.3320     12.8160    -11.3952
    46    21     -3.2005    -25.8139     12.8160    -11.0568
    46    22     13.7416    110.8333     12.8160    -10.4454
    46    23      3.2477     26.1948     12.8160     -8.8967
    46    24    -13.6249   -109.8920     12.8160     -7.7768
    46    25     -7.6993    -62.0993     12.8160      0.0833
    46    26      3.1814     25.6600     12.8160      0.9324
    46    27      7.7542     62.5415     12.8160      1.8324
    46    28     -2.3272    -18.7705     12.8160      2.7318
    46    29     -0.5795     -4.6743     12.8160      3.1884
    46    30     -1.6534    -13.3353     12.8160      3.8433
    46    31      4.3169     34.8184     12.8160      3.9609
    46    32      1.4495     11.6910     12.8160      4.0622
    46    33     -0.9909     -7.9918     12.8160      4.2877
    46    34     -2.0502    -16.5356     12.8160      4.3750
    46    35     -2.1384    -17.2476     12.8160      5.4321
    46    36     -4.9315    -39.7755     12.8160      5.4342
    46    37      2.5400     20.4864     12.8160      5.6311
    46    38     -6.1981    -49.9909     12.8160      6.3518
    46    39      7.8419     63.2491     12.8160      7.2988
    46    40      1.4681     11.8412     12.8160      8.5077
    46    41      0.3677      2.9653     12.8160      8.6839
    46    42     -4.5066    -36.3484     12.8160      9.3180
    46    43     -0.4936     -3.9813     12.8160     10.2653
    46    44     -9.3169    -75.1458     12.8160     10.6610
    46    45      3.5284     28.4582     12.8160     12.1820
    46    46      8.7684     70.7215     12.8160     12.8170
    46    47      2.5698     20.7272     12.8160     13.4656
    46    48      8.1940     66.0893     12.8160     14.4127
    47     1     -0.5323     -4.2931     13.4658    -48.3720
    47     2      0.5036      4.0618     13.4658    -42.7709
    47     3     -0.4211     -3.3964     13.4658    -36.3934
    47     4     -0.2002     -1.6144     13.4658    -33.2769
    47     5     -0.4640     -3.7426     13.4658    -31.0876
    47     6      0.1604      1.2940     13.4658    -27.1686
    47     7      1.8332     14.7855     13.4658    -27.0268
    47     8     -0.4380     -3.5329     13.4658    -26.1751
    47     9     -0.9520     -7.6786     13.4658    -22.1900
    47    10     -0.2172     -1.7520     13.4658    -20.1353
    47    11      0.4658      3.7572     13.4658    -18.6053
    47    12     -2.3061    -18.6000     13.4658    -16.4469
    47    13     -1.2933    -10.4313     13.4658    -16.3045
    47    14     -1.9168    -15.4601     13.4658    -15.5035
    47    15     -0.1416     -1.1418     13.4658    -14.4321
    47    16      0.8101      6.5335     13.4658    -14.1642
    47    17      0.2235      1.8029     13.4658    -13.9646
    47    18     -1.1166     -9.0058     13.4658    -12.8334
    47    19      2.4680     19.9059     13.4658    -12.2143
    47    20     -1.5575    -12.5625     13.4658    -11.3952
    47    21      0.5527      4.4581     13.4658    -11.0568
    47    22     -2.6780    -21.5995     13.4658    -10.4454
    47    23      2.3467     18.9271     13.4658     -8.8967
    47    24     -1.8197    -14.6766     13.4658     -7.7768
    47    25      0.4667      3.7642     13.4658      0.0833
    47    26      1.9484     15.7146     13.4658      0.9324
    47    27     -2.7663    -22.3114     13.4658      1.8324
    47    28      1.1871      9.5744     13.4658      2.7318
    47    29      0.4400      3.5491     13.4658      3.1884
    47    30     -0.1245     -1.0040     13.4658      3.8433
    47    31     -2.0976    -16.9185     13.4658      3.9609
    47    32     -0.3955     -3.1903     13.4658      4.0622
    47    33     -0.1011     -0.8151     13.4658      4.2877
    47    34     -0.3923     -3.1644     13.4658      4.3750
    47    35     -1.1623     -9.3749     13.4658      5.4321
    47    36     -0.1122     -0.9052     13.4658      5.4342
    47    37      0.5289      4.2661     13.4658      5.6311
    47    38      0.8541      6.8892     13.4658      6.3518
    47    39     -2.0874    -16.8361     13.4658      7.2988
    47    40      0.0974      0.7857     13.4658      8.5077
    47    41      1.6419     13.2424     13.4658      8.6839
    47    42     -0.9501     -7.6632     13.4658      9.3180
    47    43      1.1670      9.4125     13.4658     10.2653
    47    44     -2.0852    -16.8183     13.4658     10.6610
    47    45      0.5730      4.6219     13.4658     12.1820
    47    46     -2.0198    -16.2910     13.4658     12.8170
    47    47     -0.7495     -6.0453     13.4658     13.4656
    47    48      1.1594      9.3514     13.4658     14.4127
    48     1      0.5580      4.5006     14.4131    -48.3720
    48     2      4.2977     34.6631     14.4131    -42.7709
    48     3     -1.2838    -10.3547     14.4131    -36.3934
    48     4     -4.7043    -37.9427     14.4131    -33.2769
    48     5      1.8908     15.2507     14.4131    -31.0876
    48     6     -4.1540    -33.5046     14.4131    -27.1686
    48     7      4.8136     38.8245     14.4131    -27.0268
    48     8      4.0271     32.4807     14.4131    -26.1751
    48     9     -1.4963    -12.0688     14.4131    -22.1900
    48    10     -1.8157    -14.6450     14.4131    -20.1353
    48    11     -3.7333    -30.1114     14.4131    -18.6053
    48    12     -9.8727    -79.6289     14.4131    -16.4469
    48    13     -0.0487     -0.3924     14.4131    -16.3045
    48    14      5.1821     41.7965     14.4131    -15.5035
    48    15     -1.5113    -12.1895     14.4131    -14.4321
    48    16      6.7028     54.0620     14.4131    -14.1642
    48    17     -0.8308     -6.7012     14.4131    -13.9646
    48    18     -0.6877     -5.5467     14.4131    -12.8334
    48    19      0.2479      1.9993     14.4131    -12.2143
    48    20    -10.0037    -80.6856     14.4131    -11.3952
    48    21      7.0708     57.0298     14.4131    -11.0568
    48    22      6.2054     50.0500     14.4131    -10.4454
    48    23     -1.3266    -10.6995     14.4131     -8.8967
    48    24     -1.1320     -9.1301     14.4131     -7.7768
    48    25     -1.8102    -14.6006     14.4131      0.0833
    48    26     -1.0556     -8.5139     14.4131      0.9324
    48    27      4.9743     40.1206     14.4131      1.8324
    48    28     -1.4726    -11.8776     14.4131      2.7318
    48    29      5.1470     41.5131     14.4131      3.1884
    48    30      1.6669     13.4443     14.4131      3.8433
    48    31      3.5486     28.6216     14.4131      3.9609
    48    32     -3.3061    -26.6652     14.4131      4.0622
    48    33      3.2042     25.8436     14.4131      4.2877
    48    34      1.0441      8.4209     14.4131      4.3750
    48    35     -3.2338    -26.0825     14.4131      5.4321
    48    36     -5.3012    -42.7569     14.4131      5.4342
    48    37      0.7965      6.4240     14.4131      5.6311
    48    38     -4.2983    -34.6680     14.4131      6.3518
    48    39      2.0481     16.5189     14.4131      7.2988
    48    40      5.8232     46.9670     14.4131      8.5077
    48    41     -8.7652    -70.6958     14.4131      8.6839
    48    42     -8.3335    -67.2139     14.4131      9.3180
    48    43    -15.2911   -123.3309     14.4131     10.2653
    48    44      3.6131     29.1416     14.4131     10.6610
    48    45     13.0380    105.1585     14.4131     12.1820
    48    46      0.8406      6.7801     14.4131     12.8170
    48    47    -19.8637   -160.2117     14.4131     13.4656
    48    48    -19.3279   -155.8900     14.4131     14.4127
